Source File Name:	Analyzer
Signal:	FFT - Vib Velocity - Magnitude

Frequency	Magnitude
[ Hz ]	[ m/s ]
20	0.0006739846
20.625	0.0007337006
21.25	0.0008146035
21.875	0.0008966938
22.5	0.001009009
23.125	0.001121788
23.75	0.001271945
24.375	0.001444001
25	0.001644394
25.625	0.001869813
26.25	0.00212194
26.875	0.002393887
27.5	0.002678632
28.125	0.002877863
28.75	0.002797166
29.375	0.002216442
30	0.001486807
30.625	0.001102737
31.25	0.0009181231
31.875	0.0008148075
32.5	0.0007368987
33.125	0.0006837016
33.75	0.0006315869
34.375	0.0005845864
35	0.0005317694
35.625	0.0004913143
36.25	0.0004589846
36.875	0.0004353898
37.5	0.0004029408
38.125	0.000385314
38.75	0.0003609845
39.375	0.000346048
40	0.0003215338
40.625	0.0003058378
41.25	0.000292293
41.875	0.000281553
42.5	0.0002657395
43.125	0.0002603731
43.75	0.0002463905
44.375	0.0002392139
45	0.0002338416
45.625	0.0002296933
46.25	0.0002213654
46.875	0.0002149551
47.5	0.0002084365
48.125	0.0002066722
48.75	0.0001970466
49.375	0.0001949822
50	0.0001917966
50.625	0.0001862751
51.25	0.0001915614
51.875	0.0001841184
52.5	0.0001907154
53.125	0.0001817974
53.75	0.0001821801
54.375	0.0001831678
55	0.0001891347
55.625	0.0002006867
56.25	0.0001914197
56.875	0.000181859
57.5	0.0001844517
58.125	0.0001717701
58.75	0.0001660765
59.375	0.0001733752
60	0.0001756965
60.625	0.0001690315
61.25	0.0001606433
61.875	0.0001664974
62.5	0.0001633579
63.125	0.0001593469
63.75	0.0001641763
64.375	0.0001636321
65	0.0001625826
65.625	0.000159192
66.25	0.0001612139
66.875	0.0001552284
67.5	0.0001519707
68.125	0.0001481764
68.75	0.0001525943
69.375	0.0001453162
70	0.0001472876
70.625	0.0001420173
71.25	0.00014696
71.875	0.0001438283
72.5	0.0001465057
73.125	0.0001501386
73.75	0.0001594438
74.375	0.0001603216
75	0.0001621715
75.625	0.0001642483
76.25	0.000170762
76.875	0.0001699046
77.5	0.0001728393
78.125	0.0001773414
78.75	0.000179423
79.375	0.0001766901
80	0.000182346
80.625	0.0001798373
81.25	0.0001765184
81.875	0.0001715638
82.5	0.0001734491
83.125	0.0001698353
83.75	0.0001630905
84.375	0.0001638075
85	0.0001710571
85.625	0.0001706897
86.25	0.0001725987
86.875	0.0001780736
87.5	0.0001851423
88.125	0.0001873883
88.75	0.0001932187
89.375	0.0001931458
90	0.0001995594
90.625	0.0002013913
91.25	0.0002034871
91.875	0.0002096488
92.5	0.0002131643
93.125	0.0002130629
93.75	0.0002154855
94.375	0.0002182506
95	0.0002179179
95.625	0.0002153498
96.25	0.0002181739
96.875	0.0002240555
97.5	0.0002174179
98.125	0.0002194975
98.75	0.0002225708
99.375	0.0002289308
100	0.0002295531
100.625	0.0002357455
101.25	0.0002425489
101.875	0.0002472939
102.5	0.000246497
103.125	0.0002536565
103.75	0.0002551073
104.375	0.0002585089
105	0.0002591838
105.625	0.000264915
106.25	0.0002683253
106.875	0.0002693625
107.5	0.0002690096
108.125	0.0002733793
108.75	0.0002733045
109.375	0.0002743953
110	0.000272584
110.625	0.0002796325
111.25	0.000281197
111.875	0.0002801892
112.5	0.0002821481
113.125	0.0002914478
113.75	0.0002956452
114.375	0.0003020666
115	0.0003132058
115.625	0.0003198706
116.25	0.0003214999
116.875	0.0003300449
117.5	0.0003341261
118.125	0.0003409059
118.75	0.0003433199
119.375	0.0003541581
120	0.0003594418
120.625	0.0003661441
121.25	0.0003678445
121.875	0.00037819
122.5	0.0003795842
123.125	0.0003897663
123.75	0.0003923606
124.375	0.000399987
125	0.0004086669
125.625	0.0004155258
126.25	0.000426801
126.875	0.0004405687
127.5	0.0004526869
128.125	0.0004674722
128.75	0.000482157
129.375	0.0004958446
130	0.0005064746
130.625	0.0005174782
131.25	0.0005338886
131.875	0.0005486197
132.5	0.0005576193
133.125	0.0005754433
133.75	0.0005951643
134.375	0.0006092658
135	0.000620989
135.625	0.0006408008
136.25	0.0006594959
136.875	0.0006760412
137.5	0.0006963402
138.125	0.0007194881
138.75	0.0007405774
139.375	0.0007604944
140	0.0007885612
140.625	0.0008108294
141.25	0.0008370094
141.875	0.0008589779
142.5	0.0008838994
143.125	0.0009005299
143.75	0.0009141054
144.375	0.0009221185
145	0.0009334168
145.625	0.0009427388
146.25	0.0009556382
146.875	0.0009720779
147.5	0.0009973169
148.125	0.001017598
148.75	0.001041449
149.375	0.001063198
150	0.001082894
150.625	0.001090103
151.25	0.001098779
151.875	0.001092518
152.5	0.001074668
153.125	0.001033265
153.75	0.0009863575
154.375	0.0009268365
155	0.0008579158
155.625	0.0007889533
156.25	0.0007278435
156.875	0.0006668961
157.5	0.0006090454
158.125	0.0005595346
158.75	0.0005157048
159.375	0.0004729023
160	0.0004294842
160.625	0.0004040232
161.25	0.0003705526
161.875	0.0003417346
162.5	0.0003147899
163.125	0.0002992997
163.75	0.0002744126
164.375	0.0002558584
165	0.0002377343
165.625	0.0002214671
166.25	0.0002005424
166.875	0.0001871283
167.5	0.0001701186
168.125	0.0001548194
168.75	0.0001384003
169.375	0.0001290829
170	0.0001156297
170.625	0.0001079071
171.25	9.714794e-5
171.875	9.33121e-5
172.5	8.410142e-5
173.125	7.609513e-5
173.75	6.477217e-5
174.375	5.984085e-5
175	5.349e-5
175.625	4.875402e-5
176.25	4.432078e-5
176.875	4.54099e-5
177.5	4.050509e-5
178.125	4.193654e-5
178.75	4.862647e-5
179.375	5.074508e-5
180	6.008684e-5
180.625	6.840389e-5
181.25	8.177829e-5
181.875	8.804291e-5
182.5	0.0001006345
183.125	0.0001074567
183.75	0.0001165704
184.375	0.0001212195
185	0.0001349291
185.625	0.000142186
186.25	0.0001530857
186.875	0.000158237
187.5	0.0001713898
188.125	0.0001796715
188.75	0.0001861462
189.375	0.0001932085
190	0.0002066085
190.625	0.0002173709
191.25	0.000223391
191.875	0.0002343288
192.5	0.0002481446
193.125	0.000255924
193.75	0.0002669769
194.375	0.0002850985
195	0.0002962007
195.625	0.0003066758
196.25	0.0003185464
196.875	0.0003307307
197.5	0.0003364622
198.125	0.0003406974
198.75	0.0003477973
199.375	0.0003534479
200	0.000350048
200.625	0.0003529508
201.25	0.0003488722
201.875	0.0003436779
202.5	0.0003330549
203.125	0.0003277014
203.75	0.000315773
204.375	0.0002996857
205	0.000285084
205.625	0.0002781307
206.25	0.0002637139
206.875	0.0002550828
207.5	0.0002502485
208.125	0.0002486091
208.75	0.0002454775
209.375	0.0002460202
210	0.000245902
210.625	0.0002527496
211.25	0.0002538706
211.875	0.0002568131
212.5	0.0002560057
213.125	0.0002601907
213.75	0.0002588209
214.375	0.0002628967
215	0.0002673339
215.625	0.0002762201
216.25	0.0002740331
216.875	0.0002856586
217.5	0.0002916006
218.125	0.0002969344
218.75	0.0003040257
219.375	0.0003150724
220	0.0003241564
220.625	0.000327765
221.25	0.000332161
221.875	0.0003363953
222.5	0.0003378929
223.125	0.0003350442
223.75	0.000337405
224.375	0.0003302147
225	0.0003223461
225.625	0.0003116614
226.25	0.0003036268
226.875	0.0002899964
227.5	0.0002752063
228.125	0.0002641378
228.75	0.0002557617
229.375	0.0002399267
230	0.0002295732
230.625	0.0002184562
231.25	0.0002079915
231.875	0.000197016
232.5	0.000187213
233.125	0.000175284
233.75	0.0001687163
234.375	0.000156899
235	0.0001510381
235.625	0.0001421917
236.25	0.0001385368
236.875	0.0001289816
237.5	0.0001277286
238.125	0.0001262858
238.75	0.0001220526
239.375	0.0001134853
240	0.0001156997
240.625	0.000110317
241.25	0.0001016974
241.875	9.641625e-5
242.5	9.406978e-5
243.125	8.654175e-5
243.75	8.217108e-5
244.375	7.672697e-5
245	7.611032e-5
245.625	6.834578e-5
246.25	6.874866e-5
246.875	6.51895e-5
247.5	6.734335e-5
248.125	6.254688e-5
248.75	6.695638e-5
249.375	6.754689e-5
250	7.544114e-5
250.625	7.828818e-5
251.25	8.623193e-5
251.875	9.470982e-5
252.5	0.000100562
253.125	0.00010208
253.75	0.0001038883
254.375	0.0001104533
255	0.0001136379
255.625	0.0001109565
256.25	0.0001182604
256.875	0.000122704
257.5	0.0001226108
258.125	0.0001228391
258.75	0.0001274621
259.375	0.0001249581
260	0.0001228447
260.625	0.0001233465
261.25	0.0001248966
261.875	0.00011964
262.5	0.0001196181
263.125	0.0001210368
263.75	0.0001208279
264.375	0.0001195677
265	0.0001197503
265.625	0.0001227905
266.25	0.0001252427
266.875	0.0001223962
267.5	0.0001215796
268.125	0.0001214122
268.75	0.0001186691
269.375	0.0001158961
270	0.0001143579
270.625	0.0001154243
271.25	0.0001102172
271.875	0.0001087662
272.5	0.000108451
273.125	0.0001070095
273.75	0.0001013931
274.375	0.0001024847
275	0.0001015529
275.625	0.0001017922
276.25	9.30902e-5
276.875	9.708066e-5
277.5	9.851853e-5
278.125	9.967392e-5
278.75	9.861902e-5
279.375	0.0001064763
280	0.0001060727
280.625	0.0001055905
281.25	0.0001057921
281.875	0.0001076463
282.5	0.0001026858
283.125	0.0001014838
283.75	0.0001016711
284.375	9.982463e-5
285	9.588846e-5
285.625	9.467266e-5
286.25	9.257696e-5
286.875	9.275215e-5
287.5	8.851298e-5
288.125	8.681071e-5
288.75	8.6823e-5
289.375	9.133323e-5
290	8.397648e-5
290.625	8.851899e-5
291.25	9.05208e-5
291.875	9.469713e-5
292.5	9.582901e-5
293.125	0.0001011007
293.75	0.0001042596
294.375	0.0001054265
295	0.0001035012
295.625	0.000108452
296.25	0.0001044012
296.875	0.0001024844
297.5	0.0001019822
298.125	0.0001035202
298.75	9.976239e-5
299.375	9.746761e-5
300	9.731939e-5
300.625	0.0001000802
301.25	9.525844e-5
301.875	9.471496e-5
302.5	9.561949e-5
303.125	9.464694e-5
303.75	9.710076e-5
304.375	9.54854e-5
305	9.662993e-5
305.625	0.0001018372
306.25	0.0001024474
306.875	0.000104444
307.5	0.0001097706
308.125	0.000109916
308.75	0.0001070856
309.375	0.000107335
310	0.0001063342
310.625	0.0001026531
311.25	9.804136e-5
311.875	0.0001021573
312.5	9.900302e-5
313.125	9.339743e-5
313.75	9.147267e-5
314.375	8.988207e-5
315	8.580817e-5
315.625	8.237872e-5
316.25	8.077294e-5
316.875	7.675499e-5
317.5	7.39327e-5
318.125	6.745444e-5
318.75	6.904795e-5
319.375	6.63782e-5
320	6.777465e-5
320.625	6.683493e-5
321.25	6.816647e-5
321.875	6.477368e-5
322.5	6.243834e-5
323.125	5.937356e-5
323.75	6.268066e-5
324.375	6.395829e-5
325	6.246423e-5
325.625	6.470174e-5
326.25	7.138622e-5
326.875	7.234044e-5
327.5	7.367189e-5
328.125	7.915303e-5
328.75	8.583577e-5
329.375	8.665644e-5
330	8.943295e-5
330.625	9.352194e-5
331.25	9.785671e-5
331.875	0.0001011527
332.5	0.0001060613
333.125	0.0001088313
333.75	0.0001125175
334.375	0.0001131733
335	0.0001132295
335.625	0.0001154521
336.25	0.0001146534
336.875	0.0001085913
337.5	0.0001114688
338.125	0.0001090035
338.75	0.000109015
339.375	0.0001035894
340	0.0001115573
340.625	0.0001103742
341.25	0.0001095896
341.875	0.0001067376
342.5	0.0001118655
343.125	0.0001112008
343.75	0.0001118217
344.375	0.0001126217
345	0.0001165485
345.625	0.0001161824
346.25	0.0001172938
346.875	0.0001207375
347.5	0.00012406
348.125	0.0001228049
348.75	0.0001230322
349.375	0.0001219558
350	0.0001207337
350.625	0.0001154133
351.25	0.0001173353
351.875	0.000117555
352.5	0.0001229876
353.125	0.0001189618
353.75	0.0001220351
354.375	0.0001264783
355	0.000131324
355.625	0.0001276186
356.25	0.0001359883
356.875	0.0001380248
357.5	0.0001379865
358.125	0.0001383184
358.75	0.0001454416
359.375	0.0001465748
360	0.0001503846
360.625	0.0001529731
361.25	0.0001556195
361.875	0.0001511275
362.5	0.0001483291
363.125	0.0001474392
363.75	0.0001472238
364.375	0.0001428243
365	0.0001417393
365.625	0.0001408765
366.25	0.0001420769
366.875	0.000138565
367.5	0.0001370088
368.125	0.0001390903
368.75	0.000140643
369.375	0.0001384161
370	0.0001391744
370.625	0.0001394059
371.25	0.0001405619
371.875	0.000137355
372.5	0.0001392369
373.125	0.0001415501
373.75	0.0001412916
374.375	0.0001387256
375	0.0001447602
375.625	0.0001405337
376.25	0.0001366841
376.875	0.0001333597
377.5	0.0001340363
378.125	0.0001318813
378.75	0.0001288821
379.375	0.0001319787
380	0.0001336922
380.625	0.0001351961
381.25	0.000134662
381.875	0.0001359955
382.5	0.0001382067
383.125	0.0001422141
383.75	0.00014027
384.375	0.0001422659
385	0.0001443503
385.625	0.0001419345
386.25	0.0001426622
386.875	0.0001463592
387.5	0.0001457307
388.125	0.0001447202
388.75	0.0001425098
389.375	0.0001430629
390	0.00013693
390.625	0.000131811
391.25	0.0001321421
391.875	0.0001323451
392.5	0.0001273753
393.125	0.0001273722
393.75	0.0001290208
394.375	0.0001315448
395	0.0001318782
395.625	0.0001322132
396.25	0.0001350218
396.875	0.0001349443
397.5	0.000133141
398.125	0.0001357424
398.75	0.0001350861
399.375	0.0001388981
400	0.0001373422
400.625	0.000140005
401.25	0.0001407062
401.875	0.0001402118
402.5	0.0001342696
403.125	0.000139194
403.75	0.0001344133
404.375	0.0001320169
405	0.0001300998
405.625	0.0001353905
406.25	0.0001357201
406.875	0.000136
407.5	0.0001389169
408.125	0.0001426946
408.75	0.0001415343
409.375	0.0001437695
410	0.0001452465
410.625	0.0001471892
411.25	0.0001470139
411.875	0.0001475516
412.5	0.0001461179
413.125	0.0001474276
413.75	0.0001434561
414.375	0.0001464228
415	0.0001451473
415.625	0.0001450136
416.25	0.0001371126
416.875	0.0001373193
417.5	0.0001341719
418.125	0.0001331827
418.75	0.0001280525
419.375	0.0001328159
420	0.0001349987
420.625	0.0001345684
421.25	0.0001333699
421.875	0.0001396722
422.5	0.000139857
423.125	0.0001409159
423.75	0.0001410686
424.375	0.000144432
425	0.0001402822
425.625	0.0001415119
426.25	0.0001419821
426.875	0.0001451376
427.5	0.0001422326
428.125	0.0001445225
428.75	0.0001435221
429.375	0.0001433942
430	0.0001394542
430.625	0.0001372727
431.25	0.0001389939
431.875	0.000141401
432.5	0.0001383588
433.125	0.0001405055
433.75	0.000144189
434.375	0.0001484898
435	0.0001450548
435.625	0.0001511899
436.25	0.0001508547
436.875	0.0001514966
437.5	0.0001475044
438.125	0.0001504879
438.75	0.0001475139
439.375	0.0001451952
440	0.0001434883
440.625	0.0001462352
441.25	0.0001426743
441.875	0.0001405026
442.5	0.0001399542
443.125	0.0001378867
443.75	0.0001346603
444.375	0.0001296628
445	0.0001308475
445.625	0.0001335599
446.25	0.0001341861
446.875	0.0001352127
447.5	0.0001374512
448.125	0.0001416377
448.75	0.0001417093
449.375	0.0001425933
450	0.0001458634
450.625	0.0001473798
451.25	0.00014414
451.875	0.000145034
452.5	0.0001464478
453.125	0.0001436072
453.75	0.0001431613
454.375	0.0001464256
455	0.0001463999
455.625	0.0001438338
456.25	0.0001425775
456.875	0.000142858
457.5	0.0001416171
458.125	0.0001388858
458.75	0.0001389334
459.375	0.0001418624
460	0.0001447334
460.625	0.0001459531
461.25	0.0001470917
461.875	0.0001490095
462.5	0.0001504944
463.125	0.0001455212
463.75	0.0001480284
464.375	0.00014718
465	0.0001460052
465.625	0.0001420666
466.25	0.0001437872
466.875	0.0001402527
467.5	0.0001381468
468.125	0.0001356994
468.75	0.000141505
469.375	0.000136983
470	0.000133608
470.625	0.0001340678
471.25	0.0001350257
471.875	0.0001335998
472.5	0.000135136
473.125	0.0001376647
473.75	0.0001433736
474.375	0.0001430127
475	0.0001452346
475.625	0.0001469332
476.25	0.0001507085
476.875	0.0001485792
477.5	0.0001497545
478.125	0.0001470149
478.75	0.0001487131
479.375	0.0001430961
480	0.0001447268
480.625	0.0001466764
481.25	0.0001461886
481.875	0.0001425066
482.5	0.0001466994
483.125	0.0001433778
483.75	0.0001414521
484.375	0.0001370351
485	0.0001422948
485.625	0.0001412303
486.25	0.0001421135
486.875	0.000141377
487.5	0.0001472015
488.125	0.0001443613
488.75	0.0001471098
489.375	0.0001445142
490	0.0001465583
490.625	0.0001430002
491.25	0.0001403953
491.875	0.0001378083
492.5	0.0001377297
493.125	0.0001339546
493.75	0.0001335874
494.375	0.000133746
495	0.0001349676
495.625	0.0001297057
496.25	0.0001322432
496.875	0.0001321807
497.5	0.000134887
498.125	0.0001281455
498.75	0.0001339186
499.375	0.0001352213
500	0.0001385588
500.625	0.0001376032
501.25	0.0001456866
501.875	0.0001452946
502.5	0.0001457624
503.125	0.0001433959
503.75	0.0001449935
504.375	0.0001420839
505	0.0001414188
505.625	0.0001417332
506.25	0.0001408335
506.875	0.000137028
507.5	0.000135728
508.125	0.0001357233
508.75	0.0001386626
509.375	0.0001367212
510	0.0001354076
510.625	0.0001344848
511.25	0.0001356962
511.875	0.0001301347
512.5	0.0001317929
513.125	0.0001354657
513.75	0.0001389856
514.375	0.0001361126
515	0.0001371662
515.625	0.0001366878
516.25	0.0001351938
516.875	0.0001326189
517.5	0.000133962
518.125	0.0001330782
518.75	0.000128386
519.375	0.0001259025
520	0.0001261069
520.625	0.0001243997
521.25	0.0001260478
521.875	0.0001269037
522.5	0.0001317104
523.125	0.0001312908
523.75	0.0001286551
524.375	0.0001284194
525	0.0001318866
525.625	0.0001347935
526.25	0.0001336726
526.875	0.0001378167
527.5	0.000140827
528.125	0.0001421153
528.75	0.0001386097
529.375	0.0001436484
530	0.0001421536
530.625	0.0001398457
531.25	0.0001367689
531.875	0.000137228
532.5	0.0001328238
533.125	0.0001306613
533.75	0.0001322254
534.375	0.0001335901
535	0.0001316344
535.625	0.0001303249
536.25	0.0001317969
536.875	0.0001331792
537.5	0.0001307587
538.125	0.0001309032
538.75	0.0001295658
539.375	0.0001332914
540	0.0001301203
540.625	0.0001312282
541.25	0.0001343545
541.875	0.0001377522
542.5	0.0001326179
543.125	0.0001338279
543.75	0.00013039
544.375	0.0001294703
545	0.0001245413
545.625	0.0001287612
546.25	0.0001275862
546.875	0.0001262996
547.5	0.0001227386
548.125	0.0001294165
548.75	0.0001272642
549.375	0.0001302035
550	0.0001309258
550.625	0.0001360985
551.25	0.0001333287
551.875	0.0001332591
552.5	0.0001308198
553.125	0.0001370937
553.75	0.000136861
554.375	0.000138829
555	0.0001383058
555.625	0.0001400906
556.25	0.0001355293
556.875	0.0001345168
557.5	0.0001320225
558.125	0.000134438
558.75	0.000126757
559.375	0.0001272789
560	0.0001254232
560.625	0.0001241964
561.25	0.0001191335
561.875	0.0001273164
562.5	0.0001263333
563.125	0.0001285242
563.75	0.0001220957
564.375	0.0001267256
565	0.0001234464
565.625	0.0001240353
566.25	0.0001226542
566.875	0.0001274203
567.5	0.0001260864
568.125	0.0001272654
568.75	0.0001238855
569.375	0.0001267811
570	0.0001243011
570.625	0.0001238053
571.25	0.0001213028
571.875	0.0001224305
572.5	0.000117929
573.125	0.0001190701
573.75	0.0001192203
574.375	0.000124603
575	0.0001215731
575.625	0.0001241348
576.25	0.0001269722
576.875	0.0001300062
577.5	0.0001253268
578.125	0.0001280009
578.75	0.0001282634
579.375	0.0001286199
580	0.0001256757
580.625	0.0001288014
581.25	0.0001285379
581.875	0.0001298877
582.5	0.0001253515
583.125	0.0001262765
583.75	0.0001213233
584.375	0.0001198653
585	0.0001166722
585.625	0.0001174176
586.25	0.0001156243
586.875	0.0001139571
587.5	0.0001127858
588.125	0.0001157097
588.75	0.0001162314
589.375	0.0001142111
590	0.0001186055
590.625	0.0001200186
591.25	0.0001183078
591.875	0.0001152051
592.5	0.0001167403
593.125	0.0001182869
593.75	0.0001170516
594.375	0.0001182483
595	0.0001207543
595.625	0.0001202963
596.25	0.0001180638
596.875	0.0001179038
597.5	0.0001174816
598.125	0.0001158887
598.75	0.0001155615
599.375	0.0001166123
600	0.0001184842
600.625	0.0001175407
601.25	0.0001186136
601.875	0.0001212669
602.5	0.0001256445
603.125	0.0001240216
603.75	0.0001253143
604.375	0.0001260487
605	0.0001275504
605.625	0.0001214334
606.25	0.0001215859
606.875	0.0001234925
607.5	0.000124104
608.125	0.0001196353
608.75	0.0001238087
609.375	0.0001209105
610	0.0001182214
610.625	0.0001142496
611.25	0.0001170156
611.875	0.0001116273
612.5	0.0001129556
613.125	0.0001106331
613.75	0.0001154186
614.375	0.0001126541
615	0.0001147354
615.625	0.0001149574
616.25	0.0001213531
616.875	0.0001199914
617.5	0.0001197747
618.125	0.0001184253
618.75	0.0001214684
619.375	0.0001176631
620	0.0001180739
620.625	0.0001193229
621.25	0.0001237327
621.875	0.0001192976
622.5	0.0001221984
623.125	0.0001197191
623.75	0.000122076
624.375	0.0001157843
625	0.0001213036
625.625	0.0001189189
626.25	0.0001206378
626.875	0.0001166755
627.5	0.0001246043
628.125	0.0001219251
628.75	0.0001252778
629.375	0.0001241351
630	0.0001280708
630.625	0.0001266795
631.25	0.0001260463
631.875	0.0001217233
632.5	0.0001246857
633.125	0.0001210749
633.75	0.000120487
634.375	0.0001167524
635	0.0001211336
635.625	0.0001177344
636.25	0.0001168477
636.875	0.0001151637
637.5	0.0001174109
638.125	0.0001098743
638.75	0.0001125912
639.375	0.0001130017
640	0.0001146985
640.625	0.0001118724
641.25	0.0001159976
641.875	0.0001164809
642.5	0.0001209489
643.125	0.000117027
643.75	0.0001228754
644.375	0.000122382
645	0.0001227207
645.625	0.0001182471
646.25	0.0001198968
646.875	0.0001179115
647.5	0.0001205736
648.125	0.0001178718
648.75	0.0001223064
649.375	0.0001217265
650	0.0001206071
650.625	0.000119471
651.25	0.0001201846
651.875	0.0001189361
652.5	0.0001182106
653.125	0.0001182924
653.75	0.0001220916
654.375	0.0001201065
655	0.0001189395
655.625	0.0001235411
656.25	0.0001249148
656.875	0.0001207778
657.5	0.0001219195
658.125	0.0001203153
658.75	0.0001188005
659.375	0.0001143046
660	0.0001129505
660.625	0.0001129688
661.25	0.0001130409
661.875	0.0001116672
662.5	0.0001118798
663.125	0.0001117968
663.75	0.0001105981
664.375	0.0001084609
665	0.0001093964
665.625	0.0001124086
666.25	0.0001097579
666.875	0.0001113132
667.5	0.0001153115
668.125	0.000115728
668.75	0.0001142363
669.375	0.0001177752
670	0.0001203435
670.625	0.0001219933
671.25	0.0001178154
671.875	0.0001199297
672.5	0.0001181639
673.125	0.0001161714
673.75	0.0001126433
674.375	0.0001175282
675	0.0001156589
675.625	0.0001189326
676.25	0.000116836
676.875	0.0001193894
677.5	0.0001154566
678.125	0.0001159201
678.75	0.0001149196
679.375	0.0001165903
680	0.0001158375
680.625	0.0001154995
681.25	0.0001156965
681.875	0.0001198235
682.5	0.0001165573
683.125	0.0001162983
683.75	0.0001170225
684.375	0.0001189953
685	0.0001104735
685.625	0.0001122113
686.25	0.0001087244
686.875	0.000110576
687.5	0.0001050183
688.125	0.0001102536
688.75	0.0001080143
689.375	0.0001114947
690	0.0001083712
690.625	0.0001125279
691.25	0.0001107268
691.875	0.0001118294
692.5	0.0001093851
693.125	0.0001150498
693.75	0.0001144643
694.375	0.000116313
695	0.0001163058
695.625	0.0001220963
696.25	0.0001196471
696.875	0.0001200924
697.5	0.0001171825
698.125	0.0001221904
698.75	0.0001172477
699.375	0.0001165823
700	0.0001132168
700.625	0.0001168958
701.25	0.0001116847
701.875	0.0001142457
702.5	0.0001151776
703.125	0.0001183191
703.75	0.0001131582
704.375	0.0001165421
705	0.0001142775
705.625	0.0001135421
706.25	0.00011078
706.875	0.0001158524
707.5	0.0001131709
708.125	0.0001165048
708.75	0.0001108886
709.375	0.0001146593
710	0.0001142396
710.625	0.0001137581
711.25	0.0001090256
711.875	0.0001124459
712.5	0.0001082164
713.125	0.0001054337
713.75	0.0001023823
714.375	0.0001058397
715	0.0001068731
715.625	0.000107987
716.25	0.000110304
716.875	0.0001124344
717.5	0.0001093305
718.125	0.0001102443
718.75	0.0001116054
719.375	0.0001148266
720	0.0001128612
720.625	0.0001147521
721.25	0.0001162923
721.875	0.0001184091
722.5	0.0001136959
723.125	0.0001184011
723.75	0.0001185824
724.375	0.0001182383
725	0.0001151693
725.625	0.0001125779
726.25	0.0001116116
726.875	0.0001113556
727.5	0.0001084768
728.125	0.0001100859
728.75	0.0001124339
729.375	0.0001104885
730	0.0001107578
730.625	0.0001124249
731.25	0.0001129612
731.875	0.0001088507
732.5	0.0001095644
733.125	0.0001113623
733.75	0.0001078849
734.375	0.0001057809
735	0.0001107141
735.625	0.0001095827
736.25	0.0001101323
736.875	0.0001066615
737.5	0.0001078838
738.125	0.0001074269
738.75	0.0001057614
739.375	0.0001025983
740	0.000105618
740.625	0.0001043875
741.25	0.0001044329
741.875	0.0001051771
742.5	0.0001094904
743.125	0.0001121546
743.75	0.0001125626
744.375	0.0001135702
745	0.0001157803
745.625	0.0001116386
746.25	0.0001128052
746.875	0.0001137821
747.5	0.0001180133
748.125	0.0001140846
748.75	0.0001160827
749.375	0.0001143921
750	0.0001168199
750.625	0.0001092088
751.25	0.0001141059
751.875	0.0001121498
752.5	0.0001115219
753.125	0.0001062788
753.75	0.0001070928
754.375	0.0001032259
755	0.0001071096
755.625	0.0001048945
756.25	0.0001102207
756.875	0.0001095137
757.5	0.0001093128
758.125	0.0001050728
758.75	0.0001078439
759.375	0.0001055587
760	0.0001058776
760.625	0.0001044246
761.25	0.0001097908
761.875	0.0001041116
762.5	0.0001038674
763.125	0.0001038859
763.75	0.0001080833
764.375	0.0001041644
765	0.000105248
765.625	0.0001035318
766.25	0.0001057978
766.875	0.0001010948
767.5	0.0001049866
768.125	0.0001051504
768.75	0.0001103358
769.375	0.0001077034
770	0.0001135013
770.625	0.0001121623
771.25	0.0001150344
771.875	0.0001108575
772.5	0.0001151439
773.125	0.000111101
773.75	0.0001122177
774.375	0.0001077736
775	0.000111455
775.625	0.0001111077
776.25	0.0001093422
776.875	0.0001065102
777.5	0.0001086795
778.125	0.0001057459
778.75	0.0001017526
779.375	0.0001012734
780	0.0001029991
780.625	9.913298e-5
781.25	0.0001004317
781.875	0.0001011178
782.5	0.000104121
783.125	0.0001015244
783.75	0.0001060198
784.375	0.0001044384
785	0.0001057184
785.625	0.0001017747
786.25	0.0001026791
786.875	0.0001023603
787.5	0.0001042294
788.125	0.0001004168
788.75	0.000103176
789.375	0.0001048815
790	0.000103147
790.625	0.0001012086
791.25	0.0001031271
791.875	0.000104636
792.5	0.0001040013
793.125	0.0001015036
793.75	0.0001048246
794.375	0.0001048621
795	0.0001051646
795.625	0.0001070682
796.25	0.000111288
796.875	0.0001123607
797.5	0.0001110211
798.125	0.0001119347
798.75	0.0001112127
799.375	0.0001075981
800	0.0001051856
800.625	0.0001084182
801.25	0.0001063324
801.875	0.0001057975
802.5	0.0001038066
803.125	0.0001028165
803.75	0.0001026941
804.375	0.0001006344
805	9.834932e-5
805.625	0.0001010231
806.25	0.0001000417
806.875	9.609378e-5
807.5	9.714044e-5
808.125	9.894477e-5
808.75	9.810106e-5
809.375	0.0001008347
810	0.0001034137
810.625	0.0001066036
811.25	0.0001021572
811.875	0.0001032944
812.5	0.0001024703
813.125	0.0001031152
813.75	9.904012e-5
814.375	0.0001025009
815	0.0001023567
815.625	0.0001048339
816.25	0.0001002586
816.875	0.0001032548
817.5	0.0001050329
818.125	0.0001051441
818.75	0.0001031408
819.375	0.0001050618
820	0.0001033199
820.625	0.0001051646
821.25	0.0001028108
821.875	0.0001070356
822.5	0.0001084986
823.125	0.0001091324
823.75	0.0001078003
824.375	0.0001118376
825	0.0001058097
825.625	0.0001047597
826.25	0.0001031428
826.875	0.0001049876
827.5	9.817479e-5
828.125	9.854605e-5
828.75	9.862657e-5
829.375	0.0001003125
830	9.493392e-5
830.625	9.819977e-5
831.25	9.494902e-5
831.875	9.779447e-5
832.5	9.350415e-5
833.125	9.532575e-5
833.75	9.492988e-5
834.375	9.878922e-5
835	9.430671e-5
835.625	9.937165e-5
836.25	9.919413e-5
836.875	0.0001022259
837.5	0.0001008198
838.125	0.0001040891
838.75	0.0001024992
839.375	0.0001003206
840	9.735452e-5
840.625	0.0001005206
841.25	9.939416e-5
841.875	9.936678e-5
842.5	0.0001001737
843.125	0.000103929
843.75	9.997618e-5
844.375	0.000100532
845	9.978646e-5
845.625	0.0001044385
846.25	0.0001008055
846.875	0.0001031425
847.5	0.0001010167
848.125	0.000102318
848.75	9.944001e-5
849.375	0.0001022148
850	0.0001021421
850.625	0.0001050956
851.25	0.0001011124
851.875	9.976269e-5
852.5	9.796644e-5
853.125	9.53815e-5
853.75	9.028849e-5
854.375	9.323421e-5
855	9.331824e-5
855.625	9.136037e-5
856.25	8.951e-5
856.875	9.288549e-5
857.5	9.248188e-5
858.125	9.247825e-5
858.75	9.206108e-5
859.375	9.494504e-5
860	9.414708e-5
860.625	9.297318e-5
861.25	9.503961e-5
861.875	9.722001e-5
862.5	9.872467e-5
863.125	9.986847e-5
863.75	0.0001009137
864.375	0.0001018978
865	9.943522e-5
865.625	9.806516e-5
866.25	9.852138e-5
866.875	9.850518e-5
867.5	9.561463e-5
868.125	9.632771e-5
868.75	9.68371e-5
869.375	9.858418e-5
870	9.612186e-5
870.625	9.688893e-5
871.25	0.0001003882
871.875	9.830904e-5
872.5	9.6572e-5
873.125	9.716647e-5
873.75	9.894535e-5
874.375	9.457191e-5
875	9.656978e-5
875.625	9.614744e-5
876.25	9.702169e-5
876.875	9.441336e-5
877.5	9.670337e-5
878.125	9.522653e-5
878.75	9.327888e-5
879.375	8.842957e-5
880	8.822184e-5
880.625	8.719329e-5
881.25	8.616349e-5
881.875	8.456429e-5
882.5	8.817649e-5
883.125	9.075021e-5
883.75	8.958442e-5
884.375	8.696783e-5
885	9.174723e-5
885.625	9.185657e-5
886.25	9.226523e-5
886.875	9.2195e-5
887.5	9.593569e-5
888.125	9.418848e-5
888.75	9.446483e-5
889.375	9.515966e-5
890	9.89955e-5
890.625	9.689587e-5
891.25	9.84357e-5
891.875	9.788001e-5
892.5	9.676942e-5
893.125	9.121079e-5
893.75	9.245863e-5
894.375	9.099273e-5
895	9.414855e-5
895.625	8.959421e-5
896.25	9.329787e-5
896.875	9.213373e-5
897.5	9.415791e-5
898.125	9.031552e-5
898.75	9.200606e-5
899.375	9.115633e-5
900	9.255169e-5
900.625	8.713612e-5
901.25	8.940541e-5
901.875	8.925063e-5
902.5	8.663667e-5
903.125	8.733643e-5
903.75	9.012968e-5
904.375	8.733172e-5
905	8.628506e-5
905.625	8.420599e-5
906.25	8.588166e-5
906.875	8.129226e-5
907.5	8.061807e-5
908.125	8.117546e-5
908.75	8.610891e-5
909.375	8.398184e-5
910	8.760507e-5
910.625	8.662317e-5
911.25	9.163166e-5
911.875	8.933745e-5
912.5	8.986211e-5
913.125	9.082373e-5
913.75	9.342909e-5
914.375	9.004272e-5
915	9.211931e-5
915.625	9.134211e-5
916.25	9.290314e-5
916.875	9.160706e-5
917.5	9.336969e-5
918.125	9.407704e-5
918.75	9.12686e-5
919.375	8.612576e-5
920	8.909123e-5
920.625	8.651278e-5
921.25	8.366503e-5
921.875	8.43649e-5
922.5	8.71841e-5
923.125	8.693134e-5
923.75	8.561321e-5
924.375	8.581256e-5
925	8.711137e-5
925.625	8.541263e-5
926.25	8.494515e-5
926.875	8.369971e-5
927.5	8.395069e-5
928.125	8.260729e-5
928.75	8.156801e-5
929.375	8.180821e-5
930	8.445034e-5
930.625	8.097214e-5
931.25	8.22467e-5
931.875	8.33699e-5
932.5	8.243924e-5
933.125	7.876359e-5
933.75	7.940634e-5
934.375	8.204192e-5
935	8.177676e-5
935.625	8.194653e-5
936.25	8.452011e-5
936.875	8.922063e-5
937.5	8.77468e-5
938.125	8.824198e-5
938.75	8.929899e-5
939.375	8.995079e-5
940	8.800566e-5
940.625	8.876816e-5
941.25	8.898385e-5
941.875	8.81281e-5
942.5	8.606228e-5
943.125	8.661224e-5
943.75	8.656456e-5
944.375	8.663966e-5
945	8.427513e-5
945.625	8.461044e-5
946.25	8.40744e-5
946.875	8.060106e-5
947.5	7.607506e-5
948.125	7.945089e-5
948.75	8.006029e-5
949.375	7.921263e-5
950	7.991053e-5
950.625	8.288435e-5
951.25	8.08422e-5
951.875	7.917597e-5
952.5	7.977471e-5
953.125	8.091168e-5
953.75	7.856725e-5
954.375	7.867278e-5
955	7.677178e-5
955.625	7.819597e-5
956.25	7.536807e-5
956.875	7.770795e-5
957.5	7.883267e-5
958.125	8.2064e-5
958.75	7.769289e-5
959.375	7.873954e-5
960	7.658028e-5
960.625	7.910263e-5
961.25	7.651376e-5
961.875	8.022013e-5
962.5	8.364453e-5
963.125	8.464409e-5
963.75	8.340347e-5
964.375	8.564001e-5
965	8.63343e-5
965.625	8.515018e-5
966.25	8.381012e-5
966.875	8.538207e-5
967.5	8.405661e-5
968.125	8.074792e-5
968.75	7.963724e-5
969.375	8.275231e-5
970	7.784516e-5
970.625	7.945186e-5
971.25	7.813946e-5
971.875	7.880598e-5
972.5	7.547901e-5
973.125	7.462881e-5
973.75	7.231535e-5
974.375	7.486339e-5
975	7.102524e-5
975.625	7.27736e-5
976.25	7.410444e-5
976.875	7.654377e-5
977.5	7.543908e-5
978.125	7.53385e-5
978.75	7.710813e-5
979.375	7.719061e-5
980	7.218328e-5
980.625	7.512133e-5
981.25	7.54994e-5
981.875	7.436714e-5
982.5	7.378479e-5
983.125	7.536704e-5
983.75	7.569419e-5
984.375	7.653022e-5
985	7.573878e-5
985.625	7.887209e-5
986.25	7.789461e-5
986.875	7.587305e-5
987.5	7.662173e-5
988.125	7.745351e-5
988.75	7.73552e-5
989.375	7.83006e-5
990	7.941962e-5
990.625	8.371092e-5
991.25	8.123357e-5
991.875	7.933432e-5
992.5	7.911678e-5
993.125	7.910055e-5
993.75	7.572425e-5
994.375	7.480642e-5
995	7.390504e-5
995.625	7.496313e-5
996.25	7.049357e-5
996.875	7.019437e-5
997.5	7.2615e-5
998.125	6.950612e-5
998.75	7.018545e-5
999.375	7.078626e-5
1000	7.010923e-5
