Source File Name:	Analyzer
Signal:	FFT - Vib Velocity - Magnitude

Frequency	Magnitude
[ Hz ]	[ m/s ]
20	0.002603516
20.625	0.002374532
21.25	0.001824307
21.875	0.001285235
22.5	0.001021119
23.125	0.0008723499
23.75	0.0008196987
24.375	0.0007292543
25	0.0006590502
25.625	0.0006338021
26.25	0.0005905094
26.875	0.0005621326
27.5	0.000528509
28.125	0.000502119
28.75	0.0004772965
29.375	0.0004549573
30	0.0004404109
30.625	0.0004281422
31.25	0.0004151334
31.875	0.0004075584
32.5	0.0004007352
33.125	0.0004011959
33.75	0.0004010427
34.375	0.0004047466
35	0.000408006
35.625	0.0004155104
36.25	0.000423387
36.875	0.0004332523
37.5	0.0004400602
38.125	0.0004436649
38.75	0.0004447212
39.375	0.0004395028
40	0.0004284492
40.625	0.0004178585
41.25	0.0004043841
41.875	0.0003903198
42.5	0.0003811214
43.125	0.0003688428
43.75	0.0003635612
44.375	0.0003576493
45	0.0003538594
45.625	0.0003497168
46.25	0.0003393622
46.875	0.0003375103
47.5	0.0003366439
48.125	0.000331874
48.75	0.000329678
49.375	0.0003261704
50	0.0003241768
50.625	0.0003203754
51.25	0.000320118
51.875	0.0003162503
52.5	0.0003184103
53.125	0.000317473
53.75	0.0003196086
54.375	0.0003140097
55	0.0003166933
55.625	0.000310547
56.25	0.000304274
56.875	0.0003091321
57.5	0.0003077305
58.125	0.0002968961
58.75	0.0003108329
59.375	0.0003016502
60	0.0003006101
60.625	0.0003135718
61.25	0.000303151
61.875	0.0003036795
62.5	0.0003097645
63.125	0.0003065397
63.75	0.000301868
64.375	0.000307108
65	0.0003047282
65.625	0.0003058446
66.25	0.0003049776
66.875	0.0003044168
67.5	0.0003028786
68.125	0.000304482
68.75	0.0003079382
69.375	0.0003075165
70	0.0003050528
70.625	0.0003080369
71.25	0.0003103394
71.875	0.0003095852
72.5	0.0003076952
73.125	0.0003090458
73.75	0.0003103893
74.375	0.0003128446
75	0.000314084
75.625	0.0003143341
76.25	0.0003155544
76.875	0.0003162221
77.5	0.000318712
78.125	0.0003188916
78.75	0.0003183803
79.375	0.0003206936
80	0.0003205958
80.625	0.0003251387
81.25	0.0003263191
81.875	0.0003257403
82.5	0.0003286176
83.125	0.0003290523
83.75	0.0003337661
84.375	0.0003321493
85	0.000332538
85.625	0.0003365134
86.25	0.0003379206
86.875	0.0003395693
87.5	0.0003393796
88.125	0.000340925
88.75	0.0003429297
89.375	0.0003431178
90	0.0003473709
90.625	0.0003470027
91.25	0.0003482551
91.875	0.0003519628
92.5	0.0003538598
93.125	0.0003548865
93.75	0.0003543214
94.375	0.0003577483
95	0.0003615121
95.625	0.000363567
96.25	0.0003658799
96.875	0.0003677083
97.5	0.0003707225
98.125	0.00037354
98.75	0.0003758924
99.375	0.0003764393
100	0.0003799271
100.625	0.0003832442
101.25	0.0003848232
101.875	0.0003879727
102.5	0.0003929063
103.125	0.0003950826
103.75	0.0003951809
104.375	0.000398121
105	0.0004027241
105.625	0.0004041969
106.25	0.0004065248
106.875	0.0004096808
107.5	0.0004125768
108.125	0.0004159679
108.75	0.0004205624
109.375	0.0004237093
110	0.0004252725
110.625	0.0004300146
111.25	0.0004352255
111.875	0.0004382629
112.5	0.0004398579
113.125	0.0004438027
113.75	0.0004492266
114.375	0.0004527888
115	0.0004560965
115.625	0.000461522
116.25	0.0004657619
116.875	0.0004699126
117.5	0.0004733276
118.125	0.0004779841
118.75	0.0004801056
119.375	0.0004858743
120	0.0004924169
120.625	0.0004971017
121.25	0.000501955
121.875	0.0005087359
122.5	0.0005148944
123.125	0.0005190807
123.75	0.0005245218
124.375	0.0005327396
125	0.0005382381
125.625	0.0005456724
126.25	0.0005536168
126.875	0.000561154
127.5	0.0005678796
128.125	0.0005750738
128.75	0.0005835867
129.375	0.0005919691
130	0.0006017437
130.625	0.000611646
131.25	0.0006211546
131.875	0.0006326022
132.5	0.000644146
133.125	0.0006559584
133.75	0.0006670479
134.375	0.0006809362
135	0.0006973905
135.625	0.0007114151
136.25	0.0007275856
136.875	0.0007452526
137.5	0.0007640753
138.125	0.0007849291
138.75	0.0008063294
139.375	0.000827236
140	0.0008497147
140.625	0.0008726197
141.25	0.0008987299
141.875	0.0009218567
142.5	0.0009454523
143.125	0.0009721097
143.75	0.0009973305
144.375	0.001021406
145	0.001045989
145.625	0.001067618
146.25	0.001086383
146.875	0.001099789
147.5	0.001112138
148.125	0.001120525
148.75	0.001120049
149.375	0.001120517
150	0.001122268
150.625	0.001124836
151.25	0.00113239
151.875	0.001145407
152.5	0.001159739
153.125	0.001169099
153.75	0.001173483
154.375	0.001171219
155	0.001152252
155.625	0.001118528
156.25	0.001072126
156.875	0.001016367
157.5	0.0009505273
158.125	0.0008835071
158.75	0.0008176688
159.375	0.0007531983
160	0.0006933114
160.625	0.0006395352
161.25	0.0005884422
161.875	0.000542844
162.5	0.0005018891
163.125	0.0004670065
163.75	0.0004332079
164.375	0.0004021038
165	0.0003768183
165.625	0.0003523306
166.25	0.0003295413
166.875	0.0003096017
167.5	0.0002907201
168.125	0.0002719385
168.75	0.0002537953
169.375	0.0002379746
170	0.0002253027
170.625	0.0002127599
171.25	0.0002011446
171.875	0.0001892158
172.5	0.0001788278
173.125	0.0001690091
173.75	0.0001615707
174.375	0.0001531991
175	0.0001442529
175.625	0.0001367967
176.25	0.0001318448
176.875	0.0001283388
177.5	0.0001257272
178.125	0.0001245107
178.75	0.0001247504
179.375	0.0001247726
180	0.0001249813
180.625	0.0001284066
181.25	0.0001314161
181.875	0.0001341101
182.5	0.0001382476
183.125	0.0001445238
183.75	0.000149245
184.375	0.0001553968
185	0.0001632159
185.625	0.0001720009
186.25	0.000178154
186.875	0.0001846975
187.5	0.0001953433
188.125	0.0002024337
188.75	0.000209558
189.375	0.00022068
190	0.0002308409
190.625	0.0002406126
191.25	0.0002500142
191.875	0.0002604752
192.5	0.0002723285
193.125	0.0002814519
193.75	0.00029482
194.375	0.0003053613
195	0.0003147991
195.625	0.0003282079
196.25	0.0003414717
196.875	0.0003543745
197.5	0.0003673145
198.125	0.0003803649
198.75	0.0003959758
199.375	0.0004088319
200	0.000423939
200.625	0.0004393446
201.25	0.00045324
201.875	0.0004663868
202.5	0.0004790439
203.125	0.0004917631
203.75	0.0005036258
204.375	0.0005138598
205	0.0005223933
205.625	0.0005283764
206.25	0.0005325154
206.875	0.0005367901
207.5	0.000540266
208.125	0.000540321
208.75	0.000540235
209.375	0.000543067
210	0.0005442456
210.625	0.0005454246
211.25	0.0005484144
211.875	0.0005531192
212.5	0.0005560257
213.125	0.0005579617
213.75	0.0005617467
214.375	0.000562434
215	0.0005596174
215.625	0.0005561866
216.25	0.00054937
216.875	0.0005368248
217.5	0.0005229992
218.125	0.0005089431
218.75	0.0004934817
219.375	0.0004754588
220	0.000459284
220.625	0.000443931
221.25	0.0004282286
221.875	0.0004144189
222.5	0.0004016852
223.125	0.0003880288
223.75	0.0003762501
224.375	0.0003661787
225	0.0003553902
225.625	0.000344172
226.25	0.0003356459
226.875	0.0003287249
227.5	0.0003189507
228.125	0.0003103098
228.75	0.0003045725
229.375	0.0002975749
230	0.0002909357
230.625	0.0002849234
231.25	0.0002800666
231.875	0.0002742291
232.5	0.0002679905
233.125	0.0002654956
233.75	0.0002617969
234.375	0.0002579633
235	0.0002535924
235.625	0.0002492463
236.25	0.0002462671
236.875	0.0002427752
237.5	0.0002395645
238.125	0.0002359567
238.75	0.0002304046
239.375	0.0002288656
240	0.0002257791
240.625	0.0002223388
241.25	0.0002180998
241.875	0.0002146873
242.5	0.0002116177
243.125	0.0002074989
243.75	0.000205283
244.375	0.000204306
245	0.0001993613
245.625	0.0001962884
246.25	0.0001939441
246.875	0.0001907905
247.5	0.0001865875
248.125	0.0001848247
248.75	0.0001836022
249.375	0.0001800886
250	0.0001770339
250.625	0.0001777377
251.25	0.0001759031
251.875	0.0001717711
252.5	0.0001699187
253.125	0.000167643
253.75	0.0001642006
254.375	0.000161879
255	0.0001605399
255.625	0.0001587993
256.25	0.0001559263
256.875	0.0001534108
257.5	0.0001518378
258.125	0.000149846
258.75	0.0001491835
259.375	0.0001461875
260	0.000142239
260.625	0.000141419
261.25	0.0001413346
261.875	0.0001388953
262.5	0.0001362684
263.125	0.0001338892
263.75	0.000131162
264.375	0.0001278873
265	0.0001250261
265.625	0.0001226054
266.25	0.0001185577
266.875	0.0001147971
267.5	0.0001134456
268.125	0.0001099736
268.75	0.0001067818
269.375	0.0001032244
270	9.927352e-5
270.625	9.537263e-5
271.25	9.189134e-5
271.875	9.150384e-5
272.5	8.984187e-5
273.125	8.716015e-5
273.75	8.726258e-5
274.375	8.705584e-5
275	8.663738e-5
275.625	8.572357e-5
276.25	8.597018e-5
276.875	8.688333e-5
277.5	8.661331e-5
278.125	8.796105e-5
278.75	8.666589e-5
279.375	8.586857e-5
280	8.659179e-5
280.625	8.647472e-5
281.25	8.407252e-5
281.875	8.306083e-5
282.5	8.539118e-5
283.125	8.436731e-5
283.75	8.154864e-5
284.375	8.136853e-5
285	7.932274e-5
285.625	7.559956e-5
286.25	7.214741e-5
286.875	7.007693e-5
287.5	6.501045e-5
288.125	5.871745e-5
288.75	5.501756e-5
289.375	4.96567e-5
290	4.188287e-5
290.625	3.727356e-5
291.25	3.250283e-5
291.875	2.848434e-5
292.5	2.798832e-5
293.125	3.202933e-5
293.75	3.626014e-5
294.375	4.242028e-5
295	5.070494e-5
295.625	5.835065e-5
296.25	6.586347e-5
296.875	7.526342e-5
297.5	8.254455e-5
298.125	9.037481e-5
298.75	9.78797e-5
299.375	0.0001039639
300	0.0001108344
300.625	0.0001171049
301.25	0.0001224367
301.875	0.0001261061
302.5	0.0001295019
303.125	0.0001360513
303.75	0.0001394754
304.375	0.0001415232
305	0.0001451207
305.625	0.0001482589
306.25	0.0001499641
306.875	0.0001513807
307.5	0.0001539284
308.125	0.0001557645
308.75	0.0001562303
309.375	0.0001576331
310	0.0001600231
310.625	0.0001603205
311.25	0.0001613184
311.875	0.0001631764
312.5	0.0001629856
313.125	0.0001635104
313.75	0.0001656624
314.375	0.0001671694
315	0.0001682953
315.625	0.0001684048
316.25	0.0001712255
316.875	0.0001718617
317.5	0.0001731173
318.125	0.0001760538
318.75	0.0001761738
319.375	0.0001766554
320	0.000179051
320.625	0.000180046
321.25	0.000181203
321.875	0.0001817356
322.5	0.0001847419
323.125	0.000184417
323.75	0.0001841551
324.375	0.0001865995
325	0.0001874177
325.625	0.0001859145
326.25	0.0001857278
326.875	0.0001874372
327.5	0.0001885059
328.125	0.0001872639
328.75	0.0001880222
329.375	0.0001884792
330	0.0001872116
330.625	0.000186469
331.25	0.0001864859
331.875	0.00018611
332.5	0.0001849385
333.125	0.0001848491
333.75	0.0001845589
334.375	0.0001844283
335	0.0001838605
335.625	0.0001833885
336.25	0.0001820258
336.875	0.0001824495
337.5	0.0001831587
338.125	0.0001827185
338.75	0.0001817489
339.375	0.0001823729
340	0.0001829812
340.625	0.0001824988
341.25	0.0001829573
341.875	0.0001836902
342.5	0.0001828319
343.125	0.0001842004
343.75	0.0001859993
344.375	0.0001863332
345	0.0001849063
345.625	0.0001859053
346.25	0.0001883371
346.875	0.0001873856
347.5	0.0001871442
348.125	0.0001885599
348.75	0.0001882516
349.375	0.00018797
350	0.0001875733
350.625	0.0001883184
351.25	0.0001875512
351.875	0.0001862983
352.5	0.0001860764
353.125	0.0001857217
353.75	0.0001856607
354.375	0.0001852094
355	0.0001833045
355.625	0.0001819288
356.25	0.0001827822
356.875	0.0001821094
357.5	0.0001800628
358.125	0.0001800575
358.75	0.0001802909
359.375	0.0001795147
360	0.0001784812
360.625	0.0001793238
361.25	0.0001798632
361.875	0.0001773814
362.5	0.0001786194
363.125	0.0001793039
363.75	0.0001786518
364.375	0.0001797362
365	0.0001812002
365.625	0.0001810283
366.25	0.0001790709
366.875	0.0001794297
367.5	0.0001810353
368.125	0.0001784046
368.75	0.0001777065
369.375	0.0001779472
370	0.0001770309
370.625	0.0001768987
371.25	0.0001769429
371.875	0.0001756123
372.5	0.0001732484
373.125	0.0001718789
373.75	0.0001722249
374.375	0.0001711249
375	0.0001708976
375.625	0.0001709801
376.25	0.0001689324
376.875	0.0001685808
377.5	0.0001708383
378.125	0.000169762
378.75	0.0001681179
379.375	0.0001680309
380	0.0001701045
380.625	0.0001705036
381.25	0.0001701629
381.875	0.0001719556
382.5	0.0001722493
383.125	0.0001728414
383.75	0.0001743059
384.375	0.0001758332
385	0.0001764596
385.625	0.0001773125
386.25	0.0001791721
386.875	0.0001797282
387.5	0.0001797556
388.125	0.00018107
388.75	0.0001819149
389.375	0.0001824803
390	0.0001818076
390.625	0.0001827598
391.25	0.000182986
391.875	0.0001832459
392.5	0.000183631
393.125	0.0001828581
393.75	0.0001820227
394.375	0.0001818432
395	0.0001819695
395.625	0.0001816676
396.25	0.0001808388
396.875	0.0001807147
397.5	0.000178734
398.125	0.0001791103
398.75	0.0001804811
399.375	0.0001797725
400	0.0001771676
400.625	0.0001771616
401.25	0.0001783201
401.875	0.0001769432
402.5	0.0001758478
403.125	0.0001761939
403.75	0.0001750765
404.375	0.0001737862
405	0.0001741295
405.625	0.0001748592
406.25	0.0001726478
406.875	0.0001721198
407.5	0.0001726557
408.125	0.000170658
408.75	0.0001704301
409.375	0.0001706013
410	0.0001698953
410.625	0.0001684448
411.25	0.0001683569
411.875	0.0001690454
412.5	0.0001674431
413.125	0.0001668028
413.75	0.000167373
414.375	0.0001653653
415	0.0001649882
415.625	0.0001653986
416.25	0.0001655073
416.875	0.0001654694
417.5	0.0001653228
418.125	0.0001651253
418.75	0.0001637101
419.375	0.0001625772
420	0.000164467
420.625	0.0001633942
421.25	0.0001611668
421.875	0.0001619123
422.5	0.0001629179
423.125	0.0001628352
423.75	0.0001610898
424.375	0.0001610443
425	0.0001617235
425.625	0.000159841
426.25	0.0001608085
426.875	0.0001612253
427.5	0.0001607109
428.125	0.0001605923
428.75	0.0001599986
429.375	0.0001599729
430	0.000159622
430.625	0.0001601919
431.25	0.0001601469
431.875	0.0001586538
432.5	0.0001596144
433.125	0.0001603198
433.75	0.0001601507
434.375	0.0001610064
435	0.0001616195
435.625	0.0001602738
436.25	0.0001596886
436.875	0.0001613554
437.5	0.0001612853
438.125	0.0001603907
438.75	0.0001611051
439.375	0.000161863
440	0.0001613361
440.625	0.000162205
441.25	0.0001640804
441.875	0.0001624056
442.5	0.0001610557
443.125	0.000163492
443.75	0.0001648873
444.375	0.0001649999
445	0.0001643636
445.625	0.0001652926
446.25	0.0001650825
446.875	0.0001656387
447.5	0.0001662847
448.125	0.0001657803
448.75	0.0001656144
449.375	0.0001663721
450	0.0001662833
450.625	0.0001659553
451.25	0.0001666209
451.875	0.000167867
452.5	0.0001664858
453.125	0.000166315
453.75	0.0001676048
454.375	0.0001680013
455	0.0001668203
455.625	0.0001664179
456.25	0.0001668315
456.875	0.0001660179
457.5	0.000165753
458.125	0.0001672373
458.75	0.0001670116
459.375	0.0001651978
460	0.0001650353
460.625	0.0001654744
461.25	0.0001651621
461.875	0.0001644775
462.5	0.000164605
463.125	0.0001640462
463.75	0.0001623581
464.375	0.0001636394
465	0.000164296
465.625	0.0001617842
466.25	0.0001613997
466.875	0.0001610868
467.5	0.0001613627
468.125	0.0001609887
468.75	0.0001605891
469.375	0.0001601028
470	0.0001583621
470.625	0.0001592287
471.25	0.0001595854
471.875	0.0001575908
472.5	0.0001587791
473.125	0.0001583913
473.75	0.0001573897
474.375	0.000157013
475	0.0001577417
475.625	0.0001576761
476.25	0.0001553759
476.875	0.0001558982
477.5	0.0001569782
478.125	0.0001558769
478.75	0.0001561197
479.375	0.0001563105
480	0.0001558503
480.625	0.0001554835
481.25	0.0001557558
481.875	0.0001556618
482.5	0.0001551562
483.125	0.0001556257
483.75	0.0001561352
484.375	0.0001553617
485	0.0001553672
485.625	0.0001567487
486.25	0.0001562907
486.875	0.0001555241
487.5	0.0001559027
488.125	0.0001560377
488.75	0.0001563635
489.375	0.0001566471
490	0.0001573613
490.625	0.0001574403
491.25	0.0001568846
491.875	0.0001581682
492.5	0.0001578788
493.125	0.0001574155
493.75	0.0001584987
494.375	0.0001595544
495	0.0001594097
495.625	0.0001593879
496.25	0.0001609103
496.875	0.0001611778
497.5	0.0001594032
498.125	0.0001602505
498.75	0.0001615261
499.375	0.0001607565
500	0.0001611984
500.625	0.0001631634
501.25	0.0001628883
501.875	0.0001622267
502.5	0.0001628976
503.125	0.0001630741
503.75	0.0001623849
504.375	0.000163396
505	0.000164493
505.625	0.0001634464
506.25	0.0001636738
506.875	0.000165502
507.5	0.0001653193
508.125	0.0001638759
508.75	0.000163937
509.375	0.0001647561
510	0.0001636478
510.625	0.0001645345
511.25	0.0001652542
511.875	0.0001640722
512.5	0.0001639863
513.125	0.0001643334
513.75	0.0001644242
514.375	0.0001632622
515	0.0001633252
515.625	0.0001637452
516.25	0.0001616311
516.875	0.0001619447
517.5	0.000162932
518.125	0.0001619544
518.75	0.0001607435
519.375	0.0001595293
520	0.0001604335
520.625	0.0001593681
521.25	0.0001588277
521.875	0.0001588059
522.5	0.0001576504
523.125	0.0001573386
523.75	0.0001572793
524.375	0.0001556343
525	0.0001549064
525.625	0.0001542776
526.25	0.0001534484
526.875	0.0001518554
527.5	0.0001514872
528.125	0.0001518859
528.75	0.0001506194
529.375	0.0001481028
530	0.0001482706
530.625	0.0001475548
531.25	0.0001461008
531.875	0.0001459051
532.5	0.0001454436
533.125	0.0001439747
533.75	0.0001427788
534.375	0.0001429311
535	0.0001420051
535.625	0.0001392815
536.25	0.0001392772
536.875	0.0001389609
537.5	0.0001369603
538.125	0.0001365788
538.75	0.0001364462
539.375	0.0001348993
540	0.0001330942
540.625	0.0001330644
541.25	0.0001327201
541.875	0.0001308803
542.5	0.0001302594
543.125	0.0001304519
543.75	0.0001288816
544.375	0.0001281008
545	0.0001280512
545.625	0.0001264617
546.25	0.0001251532
546.875	0.0001253203
547.5	0.0001247665
548.125	0.0001229578
548.75	0.0001216447
549.375	0.0001233903
550	0.0001223785
550.625	0.0001209117
551.25	0.0001211753
551.875	0.0001205843
552.5	0.0001194748
553.125	0.000118393
553.75	0.000118481
554.375	0.0001178112
555	0.0001163175
555.625	0.0001172213
556.25	0.0001166932
556.875	0.000116223
557.5	0.0001158653
558.125	0.0001148746
558.75	0.0001138827
559.375	0.0001133464
560	0.0001141655
560.625	0.0001132723
561.25	0.0001124183
561.875	0.0001132629
562.5	0.0001126839
563.125	0.0001114086
563.75	0.0001110745
564.375	0.0001110485
565	0.0001100886
565.625	0.0001092755
566.25	0.0001098356
566.875	0.0001090521
567.5	0.0001086785
568.125	0.0001095914
568.75	0.0001084347
569.375	0.0001061929
570	0.0001062985
570.625	0.0001072901
571.25	0.0001063452
571.875	0.000104924
572.5	0.0001051305
573.125	0.0001050228
573.75	0.0001041373
574.375	0.0001043113
575	0.0001035136
575.625	0.0001012122
576.25	0.0001011906
576.875	0.0001015132
577.5	0.0001015319
578.125	0.0001009017
578.75	0.0001004179
579.375	9.951949e-5
580	9.746398e-5
580.625	9.811095e-5
581.25	9.816881e-5
581.875	9.571991e-5
582.5	9.492366e-5
583.125	9.606028e-5
583.75	9.633676e-5
584.375	9.450581e-5
585	9.391037e-5
585.625	9.346746e-5
586.25	9.129103e-5
586.875	9.066159e-5
587.5	9.111414e-5
588.125	9.003741e-5
588.75	8.902535e-5
589.375	8.97304e-5
590	8.83813e-5
590.625	8.660927e-5
591.25	8.616631e-5
591.875	8.620819e-5
592.5	8.514668e-5
593.125	8.343135e-5
593.75	8.389455e-5
594.375	8.390359e-5
595	8.229219e-5
595.625	8.263473e-5
596.25	8.069183e-5
596.875	7.934493e-5
597.5	7.922879e-5
598.125	7.918755e-5
598.75	7.872177e-5
599.375	7.734502e-5
600	7.750266e-5
600.625	7.661185e-5
601.25	7.489038e-5
601.875	7.612254e-5
602.5	7.517227e-5
603.125	7.34606e-5
603.75	7.264403e-5
604.375	7.372878e-5
605	7.367763e-5
605.625	7.207439e-5
606.25	7.159959e-5
606.875	7.149295e-5
607.5	7.025043e-5
608.125	7.033456e-5
608.75	7.025462e-5
609.375	6.994021e-5
610	6.966218e-5
610.625	6.982796e-5
611.25	6.966828e-5
611.875	6.897166e-5
612.5	6.900981e-5
613.125	6.913659e-5
613.75	6.779845e-5
614.375	6.78155e-5
615	6.860439e-5
615.625	6.836511e-5
616.25	6.802326e-5
616.875	6.818298e-5
617.5	6.785228e-5
618.125	6.654082e-5
618.75	6.76893e-5
619.375	6.847063e-5
620	6.739231e-5
620.625	6.783397e-5
621.25	6.871551e-5
621.875	6.803019e-5
622.5	6.728296e-5
623.125	6.837189e-5
623.75	6.852121e-5
624.375	6.630674e-5
625	6.701241e-5
625.625	6.904401e-5
626.25	6.845842e-5
626.875	6.768684e-5
627.5	6.824596e-5
628.125	6.804225e-5
628.75	6.732989e-5
629.375	6.77333e-5
630	6.830248e-5
630.625	6.736871e-5
631.25	6.766724e-5
631.875	6.817315e-5
632.5	6.753523e-5
633.125	6.721497e-5
633.75	6.818419e-5
634.375	6.741638e-5
635	6.598025e-5
635.625	6.625985e-5
636.25	6.688219e-5
636.875	6.64364e-5
637.5	6.625651e-5
638.125	6.679902e-5
638.75	6.630647e-5
639.375	6.489572e-5
640	6.613261e-5
640.625	6.607102e-5
641.25	6.450363e-5
641.875	6.368074e-5
642.5	6.392979e-5
643.125	6.432145e-5
643.75	6.358595e-5
644.375	6.425675e-5
645	6.414357e-5
645.625	6.132261e-5
646.25	6.148394e-5
646.875	6.265761e-5
647.5	6.18903e-5
648.125	6.084732e-5
648.75	6.020513e-5
649.375	6.094341e-5
650	6.052265e-5
650.625	6.009746e-5
651.25	5.99572e-5
651.875	5.837901e-5
652.5	5.80888e-5
653.125	5.852421e-5
653.75	5.757465e-5
654.375	5.788802e-5
655	5.855199e-5
655.625	5.726459e-5
656.25	5.58645e-5
656.875	5.650034e-5
657.5	5.722318e-5
658.125	5.53996e-5
658.75	5.496681e-5
659.375	5.603094e-5
660	5.472103e-5
660.625	5.488228e-5
661.25	5.610296e-5
661.875	5.560442e-5
662.5	5.382584e-5
663.125	5.352486e-5
663.75	5.46488e-5
664.375	5.398753e-5
665	5.375113e-5
665.625	5.468227e-5
666.25	5.392155e-5
666.875	5.318407e-5
667.5	5.398001e-5
668.125	5.471997e-5
668.75	5.358242e-5
669.375	5.257037e-5
670	5.311543e-5
670.625	5.365834e-5
671.25	5.441843e-5
671.875	5.479545e-5
672.5	5.40095e-5
673.125	5.314687e-5
673.75	5.400386e-5
674.375	5.453285e-5
675	5.352771e-5
675.625	5.378188e-5
676.25	5.487547e-5
676.875	5.421765e-5
677.5	5.387411e-5
678.125	5.485368e-5
678.75	5.553015e-5
679.375	5.346236e-5
680	5.35285e-5
680.625	5.507549e-5
681.25	5.561947e-5
681.875	5.447328e-5
682.5	5.543794e-5
683.125	5.603521e-5
683.75	5.477238e-5
684.375	5.4321e-5
685	5.571973e-5
685.625	5.485719e-5
686.25	5.48553e-5
686.875	5.538094e-5
687.5	5.571905e-5
688.125	5.517921e-5
688.75	5.529329e-5
689.375	5.589507e-5
690	5.478466e-5
690.625	5.443568e-5
691.25	5.487655e-5
691.875	5.438269e-5
692.5	5.51757e-5
693.125	5.553565e-5
693.75	5.433047e-5
694.375	5.364504e-5
695	5.415488e-5
695.625	5.449862e-5
696.25	5.252049e-5
696.875	5.226633e-5
697.5	5.387158e-5
698.125	5.283938e-5
698.75	5.188186e-5
699.375	5.330068e-5
700	5.308627e-5
700.625	5.180846e-5
701.25	5.042592e-5
701.875	5.135585e-5
702.5	5.105386e-5
703.125	4.945821e-5
703.75	5.008722e-5
704.375	5.016927e-5
705	4.913537e-5
705.625	4.888454e-5
706.25	4.77183e-5
706.875	4.742327e-5
707.5	4.687253e-5
708.125	4.685214e-5
708.75	4.619682e-5
709.375	4.499733e-5
710	4.592206e-5
710.625	4.582811e-5
711.25	4.426134e-5
711.875	4.368549e-5
712.5	4.321495e-5
713.125	4.23272e-5
713.75	4.175341e-5
714.375	4.255047e-5
715	4.178587e-5
715.625	3.953213e-5
716.25	3.960692e-5
716.875	4.075171e-5
717.5	3.902793e-5
718.125	3.759859e-5
718.75	3.832745e-5
719.375	3.758682e-5
720	3.580714e-5
720.625	3.585652e-5
721.25	3.686651e-5
721.875	3.514491e-5
722.5	3.328421e-5
723.125	3.400124e-5
723.75	3.410758e-5
724.375	3.268425e-5
725	3.229146e-5
725.625	3.163592e-5
726.25	3.098763e-5
726.875	3.071981e-5
727.5	3.081713e-5
728.125	2.983028e-5
728.75	2.950949e-5
729.375	2.965105e-5
730	2.862057e-5
730.625	2.707751e-5
731.25	2.815132e-5
731.875	2.802815e-5
732.5	2.632749e-5
733.125	2.564882e-5
733.75	2.638947e-5
734.375	2.557719e-5
735	2.481261e-5
735.625	2.534206e-5
736.25	2.484327e-5
736.875	2.312679e-5
737.5	2.374942e-5
738.125	2.452149e-5
738.75	2.347017e-5
739.375	2.221432e-5
740	2.258314e-5
740.625	2.309379e-5
741.25	2.180012e-5
741.875	2.194454e-5
742.5	2.241499e-5
743.125	2.125884e-5
743.75	2.10875e-5
744.375	2.123736e-5
745	2.132799e-5
745.625	2.090717e-5
746.25	2.024704e-5
746.875	2.055471e-5
747.5	1.997572e-5
748.125	2.0301e-5
748.75	2.038636e-5
749.375	1.905921e-5
750	1.977743e-5
750.625	2.076446e-5
751.25	1.951725e-5
751.875	1.862053e-5
752.5	1.902124e-5
753.125	2.032699e-5
753.75	1.865836e-5
754.375	1.815417e-5
755	1.975418e-5
755.625	1.939706e-5
756.25	1.800106e-5
756.875	1.908214e-5
757.5	1.91001e-5
758.125	1.789736e-5
758.75	1.726662e-5
759.375	1.88153e-5
760	1.878484e-5
760.625	1.749772e-5
761.25	1.840557e-5
761.875	1.894264e-5
762.5	1.759942e-5
763.125	1.750218e-5
763.75	1.799168e-5
764.375	1.743539e-5
765	1.731668e-5
765.625	1.76276e-5
766.25	1.785883e-5
766.875	1.713345e-5
767.5	1.74265e-5
768.125	1.779366e-5
768.75	1.670069e-5
769.375	1.640416e-5
770	1.753339e-5
770.625	1.660626e-5
771.25	1.668428e-5
771.875	1.804076e-5
772.5	1.8553e-5
773.125	1.654242e-5
773.75	1.607039e-5
774.375	1.771134e-5
775	1.786507e-5
775.625	1.586214e-5
776.25	1.639369e-5
776.875	1.695574e-5
777.5	1.643833e-5
778.125	1.662829e-5
778.75	1.733871e-5
779.375	1.716532e-5
780	1.592609e-5
780.625	1.591579e-5
781.25	1.699125e-5
781.875	1.682225e-5
782.5	1.689965e-5
783.125	1.689255e-5
783.75	1.6296e-5
784.375	1.682854e-5
785	1.737707e-5
785.625	1.739879e-5
786.25	1.609967e-5
786.875	1.617295e-5
787.5	1.673897e-5
788.125	1.581899e-5
788.75	1.621655e-5
789.375	1.731463e-5
790	1.635236e-5
790.625	1.56266e-5
791.25	1.602007e-5
791.875	1.695383e-5
792.5	1.562268e-5
793.125	1.533782e-5
793.75	1.70621e-5
794.375	1.633247e-5
795	1.46883e-5
795.625	1.568436e-5
796.25	1.681551e-5
796.875	1.595773e-5
797.5	1.446438e-5
798.125	1.504752e-5
798.75	1.53086e-5
799.375	1.47692e-5
800	1.561641e-5
800.625	1.530531e-5
801.25	1.417073e-5
801.875	1.411422e-5
802.5	1.465039e-5
803.125	1.443255e-5
803.75	1.43154e-5
804.375	1.416394e-5
805	1.344996e-5
805.625	1.242742e-5
806.25	1.34045e-5
806.875	1.387124e-5
807.5	1.209259e-5
808.125	1.139074e-5
808.75	1.27263e-5
809.375	1.246653e-5
810	1.163285e-5
810.625	1.193581e-5
811.25	1.209426e-5
811.875	1.067076e-5
812.5	1.054199e-5
813.125	1.172171e-5
813.75	1.102724e-5
814.375	1.003562e-5
815	1.085824e-5
815.625	1.076907e-5
816.25	9.582366e-6
816.875	9.251741e-6
817.5	1.011671e-5
818.125	9.707134e-6
818.75	8.852886e-6
819.375	9.119911e-6
820	9.509786e-6
820.625	9.052423e-6
821.25	9.717884e-6
821.875	9.18462e-6
822.5	8.552497e-6
823.125	9.17088e-6
823.75	9.395432e-6
824.375	9.064437e-6
825	9.270842e-6
825.625	9.986678e-6
826.25	9.534223e-6
826.875	8.603927e-6
827.5	1.04049e-5
828.125	1.056288e-5
828.75	9.278493e-6
829.375	9.676352e-6
830	1.046655e-5
830.625	1.078893e-5
831.25	1.036755e-5
831.875	1.140317e-5
832.5	1.129069e-5
833.125	1.00701e-5
833.75	1.135935e-5
834.375	1.229476e-5
835	1.154232e-5
835.625	1.195457e-5
836.25	1.257789e-5
836.875	1.259625e-5
837.5	1.177382e-5
838.125	1.320905e-5
838.75	1.356323e-5
839.375	1.255585e-5
840	1.291302e-5
840.625	1.384395e-5
841.25	1.358621e-5
841.875	1.41561e-5
842.5	1.466476e-5
843.125	1.405489e-5
843.75	1.305025e-5
844.375	1.449928e-5
845	1.532751e-5
845.625	1.429861e-5
846.25	1.465057e-5
846.875	1.525102e-5
847.5	1.418192e-5
848.125	1.411636e-5
848.75	1.5703e-5
849.375	1.580291e-5
850	1.388043e-5
850.625	1.436006e-5
851.25	1.606967e-5
851.875	1.552624e-5
852.5	1.50938e-5
853.125	1.533816e-5
853.75	1.472469e-5
854.375	1.427721e-5
855	1.502194e-5
855.625	1.580624e-5
856.25	1.488221e-5
856.875	1.409345e-5
857.5	1.50378e-5
858.125	1.435866e-5
858.75	1.41209e-5
859.375	1.49135e-5
860	1.469169e-5
860.625	1.367043e-5
861.25	1.387494e-5
861.875	1.48074e-5
862.5	1.462845e-5
863.125	1.448564e-5
863.75	1.466213e-5
864.375	1.359307e-5
865	1.331251e-5
865.625	1.471596e-5
866.25	1.462245e-5
866.875	1.313731e-5
867.5	1.369248e-5
868.125	1.410475e-5
868.75	1.395811e-5
869.375	1.394819e-5
870	1.513569e-5
870.625	1.467713e-5
871.25	1.28601e-5
871.875	1.481893e-5
872.5	1.615091e-5
873.125	1.528729e-5
873.75	1.516289e-5
874.375	1.535795e-5
875	1.586197e-5
875.625	1.611476e-5
876.25	1.715504e-5
876.875	1.696438e-5
877.5	1.605975e-5
878.125	1.778929e-5
878.75	1.864063e-5
879.375	1.821486e-5
880	1.946105e-5
880.625	1.97726e-5
881.25	1.93314e-5
881.875	1.987407e-5
882.5	2.162893e-5
883.125	2.174038e-5
883.75	2.070694e-5
884.375	2.229398e-5
885	2.332772e-5
885.625	2.266921e-5
886.25	2.404461e-5
886.875	2.5207e-5
887.5	2.508459e-5
888.125	2.479764e-5
888.75	2.649842e-5
889.375	2.741671e-5
890	2.670025e-5
890.625	2.78936e-5
891.25	2.952508e-5
891.875	2.906056e-5
892.5	2.888634e-5
893.125	3.015065e-5
893.75	3.097393e-5
894.375	3.087106e-5
895	3.102209e-5
895.625	3.214939e-5
896.25	3.236241e-5
896.875	3.368116e-5
897.5	3.451736e-5
898.125	3.408406e-5
898.75	3.405022e-5
899.375	3.551984e-5
900	3.58588e-5
900.625	3.573088e-5
901.25	3.656981e-5
901.875	3.819495e-5
902.5	3.725649e-5
903.125	3.730295e-5
903.75	3.880461e-5
904.375	3.912981e-5
905	3.813762e-5
905.625	3.909133e-5
906.25	4.035962e-5
906.875	3.985278e-5
907.5	3.992609e-5
908.125	4.154466e-5
908.75	4.154651e-5
909.375	4.055337e-5
910	4.140624e-5
910.625	4.197975e-5
911.25	4.17726e-5
911.875	4.260532e-5
912.5	4.342556e-5
913.125	4.269701e-5
913.75	4.284752e-5
914.375	4.349652e-5
915	4.386243e-5
915.625	4.318767e-5
916.25	4.390797e-5
916.875	4.375272e-5
917.5	4.353525e-5
918.125	4.499016e-5
918.75	4.595955e-5
919.375	4.447389e-5
920	4.420448e-5
920.625	4.492006e-5
921.25	4.552288e-5
921.875	4.437742e-5
922.5	4.516497e-5
923.125	4.651723e-5
923.75	4.542962e-5
924.375	4.538436e-5
925	4.689086e-5
925.625	4.635184e-5
926.25	4.55606e-5
926.875	4.521232e-5
927.5	4.628663e-5
928.125	4.641493e-5
928.75	4.655107e-5
929.375	4.771309e-5
930	4.712396e-5
930.625	4.662002e-5
931.25	4.728464e-5
931.875	4.691977e-5
932.5	4.690884e-5
933.125	4.744449e-5
933.75	4.807666e-5
934.375	4.782648e-5
935	4.749565e-5
935.625	4.924844e-5
936.25	4.899492e-5
936.875	4.773509e-5
937.5	4.838668e-5
938.125	4.887522e-5
938.75	4.900056e-5
939.375	4.967047e-5
940	5.085969e-5
940.625	5.02789e-5
941.25	4.934922e-5
941.875	5.12155e-5
942.5	5.166978e-5
943.125	5.019798e-5
943.75	5.082333e-5
944.375	5.191551e-5
945	5.183364e-5
945.625	5.186866e-5
946.25	5.32644e-5
946.875	5.337735e-5
947.5	5.246802e-5
948.125	5.317997e-5
948.75	5.411895e-5
949.375	5.390091e-5
950	5.432665e-5
950.625	5.533567e-5
951.25	5.543028e-5
951.875	5.568819e-5
952.5	5.674087e-5
953.125	5.650792e-5
953.75	5.573044e-5
954.375	5.684459e-5
955	5.753671e-5
955.625	5.688485e-5
956.25	5.72929e-5
956.875	5.896025e-5
957.5	5.869459e-5
958.125	5.850903e-5
958.75	5.914824e-5
959.375	5.961228e-5
960	5.892411e-5
960.625	5.989662e-5
961.25	6.101252e-5
961.875	6.024345e-5
962.5	6.02083e-5
963.125	6.173253e-5
963.75	6.166705e-5
964.375	6.08893e-5
965	6.111591e-5
965.625	6.261656e-5
966.25	6.183314e-5
966.875	6.138407e-5
967.5	6.285874e-5
968.125	6.31347e-5
968.75	6.223799e-5
969.375	6.303589e-5
970	6.308792e-5
970.625	6.256182e-5
971.25	6.286139e-5
971.875	6.321054e-5
972.5	6.313253e-5
973.125	6.242619e-5
973.75	6.32906e-5
974.375	6.310188e-5
975	6.218813e-5
975.625	6.359888e-5
976.25	6.364432e-5
976.875	6.15917e-5
977.5	6.201321e-5
978.125	6.33837e-5
978.75	6.346787e-5
979.375	6.199078e-5
980	6.269879e-5
980.625	6.30297e-5
981.25	6.121152e-5
981.875	6.197352e-5
982.5	6.269786e-5
983.125	6.094406e-5
983.75	6.022201e-5
984.375	6.092742e-5
985	6.188659e-5
985.625	6.049425e-5
986.25	6.018229e-5
986.875	6.041524e-5
987.5	5.915819e-5
988.125	5.915781e-5
988.75	5.98185e-5
989.375	5.952971e-5
990	5.887105e-5
990.625	5.880703e-5
991.25	5.88027e-5
991.875	5.81838e-5
992.5	5.852268e-5
993.125	5.819881e-5
993.75	5.661753e-5
994.375	5.707131e-5
995	5.804062e-5
995.625	5.738599e-5
996.25	5.641356e-5
996.875	5.721013e-5
997.5	5.698059e-5
998.125	5.53075e-5
998.75	5.512757e-5
999.375	5.668849e-5
1000	5.631078e-5
