Source File Name:	Analyzer
Signal:	FFT - Vib Velocity - Magnitude

Frequency	Magnitude
[ Hz ]	[ m/s ]
20	0.002647546
20.625	0.002530856
21.25	0.002060578
21.875	0.001438074
22.5	0.001089044
23.125	0.0009263186
23.75	0.0008278274
24.375	0.000758469
25	0.0007027321
25.625	0.0006433079
26.25	0.0005946229
26.875	0.0005585033
27.5	0.0005268377
28.125	0.0004985585
28.75	0.0004730694
29.375	0.0004486071
30	0.0004265341
30.625	0.0004102416
31.25	0.0003972303
31.875	0.0003883894
32.5	0.0003812346
33.125	0.0003738241
33.75	0.0003704718
34.375	0.0003685253
35	0.0003681849
35.625	0.0003695008
36.25	0.0003708655
36.875	0.0003708965
37.5	0.000372247
38.125	0.0003721236
38.75	0.0003679626
39.375	0.0003606604
40	0.0003474867
40.625	0.0003348881
41.25	0.000316795
41.875	0.0002971082
42.5	0.0002821786
43.125	0.00027315
43.75	0.0002637487
44.375	0.0002558826
45	0.0002494206
45.625	0.0002405129
46.25	0.0002329497
46.875	0.0002269617
47.5	0.000222961
48.125	0.0002184763
48.75	0.0002146261
49.375	0.0002092712
50	0.0002068139
50.625	0.0002026953
51.25	0.0001967774
51.875	0.000194822
52.5	0.0001987601
53.125	0.0001933297
53.75	0.0001858546
54.375	0.0001814952
55	0.00018775
55.625	0.0001826643
56.25	0.0001834187
56.875	0.0001749373
57.5	0.0001757094
58.125	0.0001666398
58.75	0.000164805
59.375	0.0001791278
60	0.0001714993
60.625	0.0001701286
61.25	0.0001752923
61.875	0.0001690818
62.5	0.0001657428
63.125	0.0001683988
63.75	0.0001657976
64.375	0.0001678926
65	0.000166677
65.625	0.0001664215
66.25	0.0001662832
66.875	0.0001633307
67.5	0.0001631604
68.125	0.0001618144
68.75	0.0001635837
69.375	0.0001658774
70	0.000166464
70.625	0.0001637998
71.25	0.0001649714
71.875	0.0001629109
72.5	0.0001640093
73.125	0.0001654679
73.75	0.0001649941
74.375	0.0001662849
75	0.0001678157
75.625	0.0001687687
76.25	0.0001704667
76.875	0.0001697819
77.5	0.0001707663
78.125	0.0001710385
78.75	0.0001723428
79.375	0.0001730213
80	0.000175963
80.625	0.0001766416
81.25	0.0001798733
81.875	0.0001808012
82.5	0.0001807409
83.125	0.0001786552
83.75	0.0001797621
84.375	0.0001821668
85	0.0001835361
85.625	0.0001881864
86.25	0.0001900014
86.875	0.0001906593
87.5	0.0001897319
88.125	0.0001897308
88.75	0.0001917977
89.375	0.0001950262
90	0.0001976161
90.625	0.0002001894
91.25	0.0002007345
91.875	0.0002027193
92.5	0.000202752
93.125	0.0002055453
93.75	0.0002073451
94.375	0.0002090818
95	0.0002119664
95.625	0.000214683
96.25	0.0002162419
96.875	0.0002192981
97.5	0.0002216572
98.125	0.00022467
98.75	0.0002260271
99.375	0.0002285553
100	0.000231029
100.625	0.0002348047
101.25	0.0002382183
101.875	0.0002421426
102.5	0.0002437397
103.125	0.0002462049
103.75	0.0002476849
104.375	0.0002500495
105	0.0002535105
105.625	0.0002569849
106.25	0.0002619743
106.875	0.000267207
107.5	0.0002693741
108.125	0.0002699233
108.75	0.0002720954
109.375	0.0002758162
110	0.000281454
110.625	0.0002854243
111.25	0.0002897374
111.875	0.0002942861
112.5	0.0002966231
113.125	0.0002986983
113.75	0.0003031432
114.375	0.000306615
115	0.0003134817
115.625	0.0003175997
116.25	0.0003211221
116.875	0.0003242447
117.5	0.0003280604
118.125	0.0003340475
118.75	0.0003401742
119.375	0.0003430939
120	0.0003485683
120.625	0.000352485
121.25	0.0003580431
121.875	0.0003636859
122.5	0.000370195
123.125	0.0003762576
123.75	0.0003815159
124.375	0.0003863015
125	0.0003926463
125.625	0.0003996816
126.25	0.0004066941
126.875	0.0004160115
127.5	0.0004230861
128.125	0.0004283078
128.75	0.0004355614
129.375	0.0004413109
130	0.000448875
130.625	0.0004596189
131.25	0.0004698554
131.875	0.0004815113
132.5	0.0004906585
133.125	0.0004991376
133.75	0.0005093396
134.375	0.000520394
135	0.0005344388
135.625	0.0005507272
136.25	0.0005646217
136.875	0.0005801925
137.5	0.0005950333
138.125	0.0006130942
138.75	0.0006331742
139.375	0.0006522631
140	0.0006727194
140.625	0.0006946815
141.25	0.000716776
141.875	0.0007396874
142.5	0.0007635411
143.125	0.0007875844
143.75	0.0008141369
144.375	0.0008382276
145	0.0008614276
145.625	0.0008841623
146.25	0.0009046664
146.875	0.0009268014
147.5	0.0009461647
148.125	0.0009594776
148.75	0.000968812
149.375	0.0009762783
150	0.0009852533
150.625	0.0009990215
151.25	0.001016537
151.875	0.001038614
152.5	0.00106036
153.125	0.001077176
153.75	0.001088726
154.375	0.001091623
155	0.001081894
155.625	0.001058258
156.25	0.001019742
156.875	0.0009715132
157.5	0.0009161329
158.125	0.0008578774
158.75	0.0007998749
159.375	0.0007436947
160	0.0006884736
160.625	0.0006358509
161.25	0.0005884286
161.875	0.0005458235
162.5	0.0005091674
163.125	0.0004758549
163.75	0.0004460308
164.375	0.0004191312
165	0.0003928273
165.625	0.0003682587
166.25	0.0003471888
166.875	0.000326965
167.5	0.0003092614
168.125	0.0002924895
168.75	0.0002747881
169.375	0.000259568
170	0.0002449061
170.625	0.0002314677
171.25	0.0002184973
171.875	0.0002042669
172.5	0.0001903222
173.125	0.0001777942
173.75	0.0001645017
174.375	0.0001526299
175	0.0001409337
175.625	0.0001278662
176.25	0.0001139052
176.875	0.0001001461
177.5	8.638966e-5
178.125	7.534797e-5
178.75	6.437831e-5
179.375	5.437104e-5
180	4.589408e-5
180.625	3.618363e-5
181.25	2.72414e-5
181.875	2.376566e-5
182.5	2.541922e-5
183.125	2.798893e-5
183.75	3.350517e-5
184.375	3.933629e-5
185	4.829558e-5
185.625	5.981394e-5
186.25	6.959945e-5
186.875	7.966015e-5
187.5	9.009366e-5
188.125	9.840347e-5
188.75	0.0001077873
189.375	0.000118087
190	0.0001283683
190.625	0.0001401691
191.25	0.0001511621
191.875	0.0001627127
192.5	0.0001752404
193.125	0.000187144
193.75	0.0001986845
194.375	0.0002121385
195	0.0002238422
195.625	0.0002361797
196.25	0.0002486619
196.875	0.000262709
197.5	0.0002789017
198.125	0.0002951336
198.75	0.000309815
199.375	0.000324151
200	0.000336953
200.625	0.0003516758
201.25	0.0003679049
201.875	0.0003839724
202.5	0.000400726
203.125	0.0004152116
203.75	0.0004276494
204.375	0.0004383184
205	0.000447507
205.625	0.0004558971
206.25	0.0004637291
206.875	0.0004673233
207.5	0.0004702461
208.125	0.0004715543
208.75	0.0004721956
209.375	0.0004732425
210	0.0004728536
210.625	0.0004707494
211.25	0.0004693627
211.875	0.0004671925
212.5	0.0004678297
213.125	0.000470739
213.75	0.0004722902
214.375	0.0004720766
215	0.0004684763
215.625	0.0004618813
216.25	0.0004543329
216.875	0.0004441842
217.5	0.0004330162
218.125	0.0004227783
218.75	0.0004088517
219.375	0.0003944579
220	0.0003806714
220.625	0.0003676876
221.25	0.0003561888
221.875	0.0003449601
222.5	0.000333103
223.125	0.0003229488
223.75	0.0003129755
224.375	0.0003053097
225	0.0002985596
225.625	0.0002910511
226.25	0.0002838917
226.875	0.0002761954
227.5	0.0002674279
228.125	0.0002597984
228.75	0.0002539765
229.375	0.0002498743
230	0.0002464986
230.625	0.0002411627
231.25	0.0002349212
231.875	0.0002285193
232.5	0.0002220978
233.125	0.0002177215
233.75	0.0002152221
234.375	0.0002118254
235	0.0002083571
235.625	0.0002044079
236.25	0.0002003483
236.875	0.000196769
237.5	0.0001927801
238.125	0.0001894608
238.75	0.0001875947
239.375	0.0001839607
240	0.0001808208
240.625	0.0001781904
241.25	0.00017578
241.875	0.0001749302
242.5	0.0001733084
243.125	0.0001693245
243.75	0.0001652305
244.375	0.0001615516
245	0.0001598122
245.625	0.0001602948
246.25	0.0001584737
246.875	0.0001564996
247.5	0.0001530131
248.125	0.0001480363
248.75	0.0001446222
249.375	0.0001425943
250	0.000142028
250.625	0.0001411639
251.25	0.0001375536
251.875	0.0001332898
252.5	0.0001300548
253.125	0.0001262628
253.75	0.0001233735
254.375	0.0001210134
255	0.0001173796
255.625	0.0001141172
256.25	0.0001103871
256.875	0.0001074267
257.5	0.0001055913
258.125	0.0001025827
258.75	9.998888e-5
259.375	9.707229e-5
260	9.307663e-5
260.625	9.096265e-5
261.25	8.964616e-5
261.875	8.888445e-5
262.5	8.881347e-5
263.125	8.637293e-5
263.75	8.221311e-5
264.375	7.802887e-5
265	7.393207e-5
265.625	7.288328e-5
266.25	7.225668e-5
266.875	6.997921e-5
267.5	6.6883e-5
268.125	6.253763e-5
268.75	5.744172e-5
269.375	5.358919e-5
270	4.942868e-5
270.625	4.688573e-5
271.25	4.414311e-5
271.875	3.935585e-5
272.5	3.576635e-5
273.125	3.187908e-5
273.75	2.879105e-5
274.375	2.701993e-5
275	2.483606e-5
275.625	2.437656e-5
276.25	2.45481e-5
276.875	2.458986e-5
277.5	2.561874e-5
278.125	2.47547e-5
278.75	2.567587e-5
279.375	2.79104e-5
280	2.786051e-5
280.625	2.918181e-5
281.25	2.993109e-5
281.875	3.1333e-5
282.5	3.340687e-5
283.125	3.404164e-5
283.75	3.505595e-5
284.375	3.514045e-5
285	3.424945e-5
285.625	3.442923e-5
286.25	3.437868e-5
286.875	3.371448e-5
287.5	3.44536e-5
288.125	3.260764e-5
288.75	3.033505e-5
289.375	2.730322e-5
290	2.455463e-5
290.625	2.428614e-5
291.25	2.447484e-5
291.875	2.594396e-5
292.5	2.988595e-5
293.125	3.248367e-5
293.75	3.632011e-5
294.375	3.992968e-5
295	4.519464e-5
295.625	5.177128e-5
296.25	5.89253e-5
296.875	6.63664e-5
297.5	7.232489e-5
298.125	7.596942e-5
298.75	8.018166e-5
299.375	8.421073e-5
300	8.835752e-5
300.625	9.463641e-5
301.25	0.0001001027
301.875	0.0001032372
302.5	0.0001047446
303.125	0.0001046065
303.75	0.0001059938
304.375	0.0001085403
305	0.0001101282
305.625	0.0001121095
306.25	0.0001127696
306.875	0.0001125874
307.5	0.0001122012
308.125	0.0001123461
308.75	0.0001115248
309.375	0.0001114705
310	0.0001098003
310.625	0.0001088904
311.25	0.0001082371
311.875	0.0001072581
312.5	0.0001071861
313.125	0.0001072904
313.75	0.000105706
314.375	0.0001041887
315	0.0001016036
315.625	0.0001000809
316.25	0.0001005339
316.875	0.0001019244
317.5	0.0001036895
318.125	0.0001034302
318.75	0.0001010626
319.375	9.958364e-5
320	9.835852e-5
320.625	9.900622e-5
321.25	0.0001011889
321.875	0.0001030646
322.5	0.0001037745
323.125	0.000102739
323.75	0.0001007842
324.375	0.0001008023
325	0.0001011266
325.625	0.0001012551
326.25	0.0001034383
326.875	0.0001030822
327.5	0.000102919
328.125	0.0001023632
328.75	0.0001011291
329.375	0.0001012646
330	0.0001016356
330.625	0.0001012254
331.25	0.0001012917
331.875	9.929524e-5
332.5	9.922645e-5
333.125	0.0001004243
333.75	0.0001000328
334.375	9.918011e-5
335	9.721642e-5
335.625	9.563478e-5
336.25	9.545827e-5
336.875	9.503387e-5
337.5	9.597991e-5
338.125	9.73312e-5
338.75	9.65231e-5
339.375	9.585245e-5
340	9.391355e-5
340.625	9.25585e-5
341.25	9.435687e-5
341.875	9.60459e-5
342.5	9.850191e-5
343.125	9.966589e-5
343.75	9.846593e-5
344.375	9.849296e-5
345	9.806439e-5
345.625	9.883386e-5
346.25	0.0001019771
346.875	0.0001047209
347.5	0.0001064158
348.125	0.0001074508
348.75	0.0001064196
349.375	0.0001069694
350	0.0001075905
350.625	0.0001088088
351.25	0.0001115105
351.875	0.0001123123
352.5	0.000113046
353.125	0.0001134982
353.75	0.0001131813
354.375	0.0001137557
355	0.0001141373
355.625	0.0001144314
356.25	0.0001152483
356.875	0.0001148354
357.5	0.0001151638
358.125	0.0001165359
358.75	0.0001164384
359.375	0.0001171736
360	0.0001169345
360.625	0.0001157947
361.25	0.0001163305
361.875	0.000117215
362.5	0.0001187655
363.125	0.0001208434
363.75	0.0001210859
364.375	0.0001214758
365	0.0001214468
365.625	0.000120004
366.25	0.0001209772
366.875	0.0001223707
367.5	0.0001245452
368.125	0.0001261754
368.75	0.0001255132
369.375	0.0001244153
370	0.0001230397
370.625	0.0001223886
371.25	0.0001234128
371.875	0.0001247239
372.5	0.0001250774
373.125	0.0001257208
373.75	0.000124378
374.375	0.0001221882
375	0.000121339
375.625	0.0001216271
376.25	0.0001232242
376.875	0.0001237232
377.5	0.0001233216
378.125	0.0001235626
378.75	0.0001231863
379.375	0.0001230345
380	0.0001237629
380.625	0.0001239964
381.25	0.0001254194
381.875	0.0001266214
382.5	0.0001272244
383.125	0.0001286884
383.75	0.0001295563
384.375	0.0001312209
385	0.0001335003
385.625	0.0001334328
386.25	0.0001342318
386.875	0.0001359568
387.5	0.000137655
388.125	0.0001404954
388.75	0.0001424198
389.375	0.0001437671
390	0.0001441095
390.625	0.0001424071
391.25	0.0001429463
391.875	0.0001447423
392.5	0.0001471684
393.125	0.0001495369
393.75	0.0001503544
394.375	0.0001488854
395	0.0001478292
395.625	0.0001461885
396.25	0.0001466031
396.875	0.000148361
397.5	0.0001491261
398.125	0.0001507171
398.75	0.0001499136
399.375	0.0001476118
400	0.000146895
400.625	0.0001465423
401.25	0.0001474803
401.875	0.0001487217
402.5	0.0001480671
403.125	0.0001478826
403.75	0.000147085
404.375	0.0001459564
405	0.0001473476
405.625	0.0001469876
406.25	0.0001460343
406.875	0.0001458046
407.5	0.0001445762
408.125	0.0001453794
408.75	0.0001456789
409.375	0.0001458197
410	0.000145856
410.625	0.0001447887
411.25	0.0001431005
411.875	0.000143223
412.5	0.0001425419
413.125	0.0001440048
413.75	0.0001454588
414.375	0.0001449913
415	0.0001442746
415.625	0.0001417805
416.25	0.0001407939
416.875	0.0001418122
417.5	0.0001423454
418.125	0.0001448143
418.75	0.000145611
419.375	0.0001439904
420	0.0001421684
420.625	0.0001406346
421.25	0.0001407356
421.875	0.0001426248
422.5	0.0001436092
423.125	0.0001444537
423.75	0.0001441369
424.375	0.000142413
425	0.0001417483
425.625	0.0001412242
426.25	0.0001412933
426.875	0.0001427279
427.5	0.0001428033
428.125	0.0001423652
428.75	0.0001419464
429.375	0.0001410686
430	0.0001421013
430.625	0.0001415682
431.25	0.0001406287
431.875	0.0001409031
432.5	0.0001404146
433.125	0.0001406097
433.75	0.0001410809
434.375	0.0001413682
435	0.0001415902
435.625	0.0001409541
436.25	0.0001392297
436.875	0.0001392665
437.5	0.0001388793
438.125	0.0001402672
438.75	0.0001420172
439.375	0.0001419429
440	0.0001413688
440.625	0.0001403032
441.25	0.0001390083
441.875	0.0001387763
442.5	0.0001395689
443.125	0.0001415322
443.75	0.0001435996
444.375	0.0001428695
445	0.000141543
445.625	0.0001404166
446.25	0.0001393264
446.875	0.0001407314
447.5	0.0001423661
448.125	0.0001437104
448.75	0.0001444409
449.375	0.0001433569
450	0.000142536
450.625	0.0001423488
451.25	0.0001420067
451.875	0.0001433588
452.5	0.0001444273
453.125	0.0001444594
453.75	0.0001451547
454.375	0.0001442673
455	0.000144472
455.625	0.000144721
456.25	0.0001443326
456.875	0.0001455199
457.5	0.0001449793
458.125	0.00014448
458.75	0.0001453167
459.375	0.000145798
460	0.0001458877
460.625	0.0001460895
461.25	0.0001448731
461.875	0.0001442071
462.5	0.0001436034
463.125	0.0001437491
463.75	0.0001460624
464.375	0.0001465341
465	0.0001461379
465.625	0.0001449754
466.25	0.000142465
466.875	0.0001419408
467.5	0.0001424661
468.125	0.0001435255
468.75	0.000145391
469.375	0.0001453275
470	0.0001442577
470.625	0.0001426915
471.25	0.0001398739
471.875	0.0001400784
472.5	0.0001423216
473.125	0.0001434633
473.75	0.0001441306
474.375	0.0001426646
475	0.0001411813
475.625	0.0001407706
476.25	0.0001399297
476.875	0.0001407977
477.5	0.0001419376
478.125	0.0001416025
478.75	0.0001419127
479.375	0.0001409317
480	0.000140357
480.625	0.0001410299
481.25	0.0001410397
481.875	0.0001411401
482.5	0.0001408015
483.125	0.0001396281
483.75	0.0001408062
484.375	0.0001413379
485	0.0001413199
485.625	0.000142167
486.25	0.0001411162
486.875	0.0001402462
487.5	0.0001395913
488.125	0.0001392748
488.75	0.0001415515
489.375	0.0001425271
490	0.0001424951
490.625	0.0001420293
491.25	0.0001398996
491.875	0.0001386767
492.5	0.0001396409
493.125	0.0001405196
493.75	0.0001429234
494.375	0.0001434938
495	0.000142764
495.625	0.0001413963
496.25	0.0001390103
496.875	0.000139231
497.5	0.0001409198
498.125	0.0001421686
498.75	0.0001433879
499.375	0.0001430324
500	0.0001418388
500.625	0.0001409841
501.25	0.0001403791
501.875	0.0001411794
502.5	0.0001423173
503.125	0.0001420902
503.75	0.0001427057
504.375	0.0001425594
505	0.0001417262
505.625	0.000142095
506.25	0.0001418688
506.875	0.0001418386
507.5	0.000141904
508.125	0.000141466
508.75	0.0001416785
509.375	0.000142355
510	0.0001426887
510.625	0.0001437468
511.25	0.0001426977
511.875	0.0001413085
512.5	0.000140941
513.125	0.0001410725
513.75	0.0001417693
514.375	0.0001432378
515	0.0001436679
515.625	0.0001440169
516.25	0.0001419903
516.875	0.0001399298
517.5	0.0001400084
518.125	0.000140525
518.75	0.0001425325
519.375	0.000143893
520	0.0001431381
520.625	0.0001422018
521.25	0.000140322
521.875	0.0001390904
522.5	0.0001397436
523.125	0.0001403245
523.75	0.0001419234
524.375	0.0001427977
525	0.0001409333
525.625	0.0001396085
526.25	0.0001392684
526.875	0.0001385057
527.5	0.000139513
528.125	0.0001397948
528.75	0.0001399731
529.375	0.0001399925
530	0.0001386745
530.625	0.000138209
531.25	0.0001387407
531.875	0.0001383053
532.5	0.0001388715
533.125	0.000137789
533.75	0.0001371982
534.375	0.0001375932
535	0.0001377234
535.625	0.0001384976
536.25	0.0001379866
536.875	0.0001364972
537.5	0.0001365848
538.125	0.0001352259
538.75	0.0001350594
539.375	0.0001367922
540	0.0001374916
540.625	0.000138027
541.25	0.0001366075
541.875	0.0001339417
542.5	0.0001333743
543.125	0.000133304
543.75	0.0001344714
544.375	0.0001369888
545	0.0001368197
545.625	0.0001356016
546.25	0.0001335623
546.875	0.0001317065
547.5	0.0001319947
548.125	0.0001329748
548.75	0.0001344458
549.375	0.0001354945
550	0.0001340049
550.625	0.0001327392
551.25	0.0001316905
551.875	0.0001307006
552.5	0.0001313597
553.125	0.0001324581
553.75	0.0001322714
554.375	0.0001320955
555	0.000130667
555.625	0.0001307238
556.25	0.0001311241
556.875	0.0001304792
557.5	0.0001306133
558.125	0.0001298187
558.75	0.0001288437
559.375	0.0001293702
560	0.0001293906
560.625	0.0001304095
561.25	0.0001307651
561.875	0.0001291787
562.5	0.0001282088
563.125	0.0001272207
563.75	0.0001267937
564.375	0.0001287327
565	0.0001297142
565.625	0.0001298817
566.25	0.0001295258
566.875	0.0001273253
567.5	0.0001259194
568.125	0.0001250862
568.75	0.0001264923
569.375	0.0001292271
570	0.0001296245
570.625	0.0001286145
571.25	0.0001270449
571.875	0.0001251522
572.5	0.0001251769
573.125	0.000126061
573.75	0.0001270164
574.375	0.0001285421
575	0.0001279747
575.625	0.0001270048
576.25	0.0001260725
576.875	0.000124834
577.5	0.0001255581
578.125	0.0001266422
578.75	0.0001265949
579.375	0.0001267176
580	0.0001266188
580.625	0.0001261951
581.25	0.0001264006
581.875	0.0001255925
582.5	0.0001260962
583.125	0.0001262802
583.75	0.0001252823
584.375	0.0001256932
585	0.0001262299
585.625	0.0001267483
586.25	0.0001276656
586.875	0.0001267072
587.5	0.0001257295
588.125	0.0001251994
588.75	0.0001247867
589.375	0.0001261131
590	0.0001273274
590.625	0.0001279183
591.25	0.0001284288
591.875	0.0001267901
592.5	0.0001252339
593.125	0.0001245281
593.75	0.0001251586
594.375	0.0001274894
595	0.0001286318
595.625	0.0001284882
596.25	0.0001281652
596.875	0.00012579
597.5	0.00012444
598.125	0.0001254124
598.75	0.0001264531
599.375	0.000128046
600	0.0001287309
600.625	0.0001275222
601.25	0.0001267301
601.875	0.000125348
602.5	0.0001254319
603.125	0.0001265739
603.75	0.0001268864
604.375	0.0001274143
605	0.0001271919
605.625	0.0001262658
606.25	0.0001261268
606.875	0.0001260164
607.5	0.0001259956
608.125	0.0001265728
608.75	0.0001254832
609.375	0.0001259298
610	0.0001260795
610.625	0.0001256862
611.25	0.0001265187
611.875	0.0001268932
612.5	0.0001259673
613.125	0.000125091
613.75	0.0001234727
614.375	0.0001242638
615	0.0001256642
615.625	0.000126545
616.25	0.000127554
616.875	0.0001259095
617.5	0.0001238339
618.125	0.0001232869
618.75	0.0001226893
619.375	0.0001243294
620	0.0001266095
620.625	0.0001269629
621.25	0.0001266805
621.875	0.0001242684
622.5	0.0001219203
623.125	0.0001226131
623.75	0.0001236119
624.375	0.0001250809
625	0.000126493
625.625	0.0001256216
626.25	0.0001246372
626.875	0.0001227896
627.5	0.0001226951
628.125	0.0001235619
628.75	0.0001242018
629.375	0.0001247361
630	0.0001248188
630.625	0.0001233892
631.25	0.0001238582
631.875	0.0001238009
632.5	0.0001235163
633.125	0.0001237742
633.75	0.0001230263
634.375	0.00012272
635	0.0001230747
635.625	0.0001226795
636.25	0.0001239446
636.875	0.0001246745
637.5	0.0001234046
638.125	0.0001221802
638.75	0.000120673
639.375	0.0001206497
640	0.0001221655
640.625	0.0001232857
641.25	0.0001242916
641.875	0.0001234453
642.5	0.0001207998
643.125	0.0001200019
643.75	0.0001192162
644.375	0.0001201844
645	0.0001223257
645.625	0.0001231471
646.25	0.0001224414
646.875	0.0001209756
647.5	0.0001188717
648.125	0.0001188311
648.75	0.000118915
649.375	0.0001203999
650	0.0001221056
650.625	0.0001213374
651.25	0.0001202572
651.875	0.0001192308
652.5	0.0001182065
653.125	0.0001190663
653.75	0.0001192231
654.375	0.0001196945
655	0.0001201878
655.625	0.0001191737
656.25	0.0001188121
656.875	0.0001190211
657.5	0.0001185532
658.125	0.0001187222
658.75	0.0001184326
659.375	0.0001173885
660	0.0001179974
660.625	0.0001177991
661.25	0.0001186251
661.875	0.0001190252
662.5	0.0001179056
663.125	0.0001175134
663.75	0.0001165254
664.375	0.0001155466
665	0.0001164125
665.625	0.0001178803
666.25	0.0001188482
666.875	0.0001188459
667.5	0.0001166962
668.125	0.0001152157
668.75	0.0001146194
669.375	0.0001143618
670	0.0001164054
670.625	0.0001175326
671.25	0.0001177894
671.875	0.0001171138
672.5	0.0001146314
673.125	0.0001133023
673.75	0.0001135165
674.375	0.000114543
675	0.0001164861
675.625	0.0001164497
676.25	0.0001154021
676.875	0.0001151121
677.5	0.0001136804
678.125	0.0001130672
678.75	0.0001138991
679.375	0.0001143995
680	0.0001155506
680.625	0.0001149586
681.25	0.0001140279
681.875	0.0001142098
682.5	0.00011391
683.125	0.000114265
683.75	0.0001145326
684.375	0.0001134079
685	0.0001134473
685.625	0.0001135432
686.25	0.0001138539
686.875	0.0001150008
687.5	0.0001145173
688.125	0.0001144562
688.75	0.0001134934
689.375	0.0001115817
690	0.0001124285
690.625	0.000113623
691.25	0.0001146142
691.875	0.000115862
692.5	0.0001144393
693.125	0.0001129829
693.75	0.000111601
694.375	0.0001105797
695	0.0001128104
695.625	0.0001145958
696.25	0.0001152449
696.875	0.0001153433
697.5	0.0001132183
698.125	0.0001109231
698.75	0.0001111623
699.375	0.0001118764
700	0.0001138056
700.625	0.000114948
701.25	0.0001141055
701.875	0.0001137989
702.5	0.0001119402
703.125	0.0001112348
703.75	0.000112303
704.375	0.0001128501
705	0.0001138847
705.625	0.0001134836
706.25	0.0001129961
706.875	0.0001128117
707.5	0.000112213
708.125	0.000112705
708.75	0.0001136547
709.375	0.0001125926
710	0.0001123488
710.625	0.0001121845
711.25	0.0001123644
711.875	0.0001139084
712.5	0.000114273
713.125	0.0001134666
713.75	0.0001127398
714.375	0.0001112804
715	0.0001113429
715.625	0.0001126706
716.25	0.0001134661
716.875	0.000115008
717.5	0.0001148998
718.125	0.0001129291
718.75	0.0001114216
719.375	0.0001106308
720	0.0001120596
720.625	0.0001140025
721.25	0.0001148595
721.875	0.0001151933
722.5	0.0001136244
723.125	0.0001115578
723.75	0.0001113128
724.375	0.0001114783
725	0.0001129706
725.625	0.00011481
726.25	0.000114293
726.875	0.0001138726
727.5	0.0001123529
728.125	0.000111601
728.75	0.0001124777
729.375	0.0001125192
730	0.0001129778
730.625	0.0001138444
731.25	0.0001132942
731.875	0.0001129153
732.5	0.0001126073
733.125	0.0001122253
733.75	0.0001131526
734.375	0.0001124704
735	0.000111741
735.625	0.0001123485
736.25	0.0001122176
736.875	0.0001129289
737.5	0.0001139274
738.125	0.0001130141
738.75	0.0001124114
739.375	0.0001111555
740	0.0001105748
740.625	0.000111448
741.25	0.0001122529
741.875	0.0001140589
742.5	0.000114356
743.125	0.0001122646
743.75	0.0001111134
744.375	0.0001097137
745	0.0001100668
745.625	0.0001115681
746.25	0.0001131142
746.875	0.0001138398
747.5	0.0001132349
748.125	0.0001106303
748.75	0.0001096265
749.375	0.0001095745
750	0.00010996
750.625	0.0001121255
751.25	0.0001127192
751.875	0.0001121658
752.5	0.0001111154
753.125	0.0001094938
753.75	0.0001095011
754.375	0.000109807
755	0.0001102989
755.625	0.0001116791
756.25	0.0001107015
756.875	0.0001100407
757.5	0.0001101685
758.125	0.0001097108
758.75	0.0001099937
759.375	0.0001097851
760	0.0001092749
760.625	0.0001097696
761.25	0.0001085763
761.875	0.000109196
762.5	0.000110265
763.125	0.0001100969
763.75	0.0001100099
764.375	0.0001085632
765	0.0001069907
765.625	0.0001077635
766.25	0.0001079294
766.875	0.0001098681
767.5	0.000110879
768.125	0.0001094227
768.75	0.0001083163
769.375	0.0001068007
770	0.000105553
770.625	0.0001074428
771.25	0.0001095449
771.875	0.0001102293
772.5	0.0001101405
773.125	0.0001080306
773.75	0.0001067771
774.375	0.0001060107
775	0.0001062441
775.625	0.0001081536
776.25	0.0001096003
776.875	0.0001095078
777.5	0.0001085581
778.125	0.0001065694
778.75	0.0001059605
779.375	0.0001065509
780	0.0001071909
780.625	0.0001083413
781.25	0.0001077745
781.875	0.0001070421
782.5	0.0001073577
783.125	0.0001064429
783.75	0.0001068268
784.375	0.0001069852
785	0.0001065471
785.625	0.0001063861
786.25	0.0001057539
786.875	0.0001059413
787.5	0.0001073864
788.125	0.0001073677
788.75	0.0001066764
789.375	0.0001062006
790	0.0001042241
790.625	0.0001042262
791.25	0.0001051432
791.875	0.0001061176
792.5	0.0001076285
793.125	0.0001071812
793.75	0.0001054322
794.375	0.000103789
795	0.0001023929
795.625	0.0001036135
796.25	0.0001056198
796.875	0.0001065392
797.5	0.0001067709
798.125	0.0001054027
798.75	0.000103629
799.375	0.0001025958
800	0.0001024237
800.625	0.0001044075
801.25	0.0001055754
801.875	0.0001056241
802.5	0.0001053553
803.125	0.0001038218
803.75	0.0001025802
804.375	0.0001030119
805	0.0001030588
805.625	0.0001041546
806.25	0.0001047679
806.875	0.000103798
807.5	0.0001040289
808.125	0.0001030258
808.75	0.0001029367
809.375	0.0001035699
810	0.0001030022
810.625	0.0001025016
811.25	0.0001029869
811.875	0.0001024565
812.5	0.0001033982
813.125	0.000103449
813.75	0.0001034783
814.375	0.0001032998
815	0.0001013578
815.625	0.0001006684
816.25	0.0001013534
816.875	0.0001021788
817.5	0.000103798
818.125	0.0001037678
818.75	0.0001025209
819.375	0.000101499
820	9.950175e-5
820.625	9.966335e-5
821.25	0.0001013359
821.875	0.0001020699
822.5	0.000103813
823.125	0.0001029296
823.75	0.0001003939
824.375	9.946426e-5
825	9.876586e-5
825.625	9.988915e-5
826.25	0.0001014767
826.875	0.0001021029
827.5	0.0001022641
828.125	0.0001014585
828.75	9.899507e-5
829.375	9.900045e-5
830	9.944395e-5
830.625	0.0001003959
831.25	0.0001012984
831.875	0.0001005704
832.5	0.000100421
833.125	9.99376e-5
833.75	9.914042e-5
834.375	9.991028e-5
835	9.959834e-5
835.625	9.973528e-5
836.25	9.968893e-5
836.875	9.877467e-5
837.5	9.919051e-5
838.125	9.982752e-5
838.75	0.0001001546
839.375	0.0001002313
840	9.850804e-5
840.625	9.728863e-5
841.25	9.803876e-5
841.875	9.778666e-5
842.5	9.957216e-5
843.125	0.000100424
843.75	9.967208e-5
844.375	9.862535e-5
845	9.645553e-5
845.625	9.567942e-5
846.25	9.710405e-5
846.875	9.833118e-5
847.5	0.0001001826
848.125	9.975662e-5
848.75	9.767801e-5
849.375	9.616373e-5
850	9.519853e-5
850.625	9.530519e-5
851.25	9.733877e-5
851.875	9.843131e-5
852.5	9.863654e-5
853.125	9.769026e-5
853.75	9.548679e-5
854.375	9.536038e-5
855	9.513005e-5
855.625	9.578471e-5
856.25	9.710206e-5
856.875	9.685085e-5
857.5	9.625545e-5
858.125	9.578737e-5
858.75	9.482678e-5
859.375	9.564032e-5
860	9.57446e-5
860.625	9.4991e-5
861.25	9.541606e-5
861.875	9.437406e-5
862.5	9.428486e-5
863.125	9.590074e-5
863.75	9.559283e-5
864.375	9.589703e-5
865	9.460747e-5
865.625	9.322367e-5
866.25	9.290398e-5
866.875	9.316564e-5
867.5	9.447533e-5
868.125	9.621093e-5
868.75	9.55199e-5
869.375	9.407097e-5
870	9.285293e-5
870.625	9.138982e-5
871.25	9.210106e-5
871.875	9.321643e-5
872.5	9.494169e-5
873.125	9.571976e-5
873.75	9.419549e-5
874.375	9.257191e-5
875	9.116314e-5
875.625	9.072148e-5
876.25	9.263923e-5
876.875	9.41148e-5
877.5	9.414532e-5
878.125	9.407877e-5
878.75	9.230981e-5
879.375	9.156534e-5
880	9.151854e-5
880.625	9.08583e-5
881.25	9.298184e-5
881.875	9.311528e-5
882.5	9.240885e-5
883.125	9.235936e-5
883.75	9.126648e-5
884.375	9.140469e-5
885	9.161203e-5
885.625	9.12084e-5
886.25	9.141312e-5
886.875	9.108915e-5
887.5	9.062725e-5
888.125	9.155319e-5
888.75	9.137811e-5
889.375	9.171267e-5
890	9.153084e-5
890.625	8.993443e-5
891.25	8.948286e-5
891.875	8.928849e-5
892.5	9.020625e-5
893.125	9.210032e-5
893.75	9.158774e-5
894.375	9.110577e-5
895	8.997723e-5
895.625	8.79112e-5
896.25	8.802697e-5
896.875	8.894341e-5
897.5	9.032468e-5
898.125	9.196562e-5
898.75	9.098573e-5
899.375	8.927722e-5
900	8.792362e-5
900.625	8.617646e-5
901.25	8.757713e-5
901.875	8.936098e-5
902.5	8.975012e-5
903.125	9.07081e-5
903.75	8.881761e-5
904.375	8.689463e-5
905	8.639826e-5
905.625	8.65307e-5
906.25	8.781001e-5
906.875	8.859607e-5
907.5	8.836914e-5
908.125	8.772963e-5
908.75	8.691724e-5
909.375	8.594645e-5
910	8.664683e-5
910.625	8.63512e-5
911.25	8.69018e-5
911.875	8.631583e-5
912.5	8.527664e-5
913.125	8.646754e-5
913.75	8.591466e-5
914.375	8.62066e-5
915	8.668572e-5
915.625	8.479335e-5
916.25	8.428433e-5
916.875	8.414908e-5
917.5	8.397667e-5
918.125	8.550593e-5
918.75	8.647559e-5
919.375	8.606249e-5
920	8.511915e-5
920.625	8.240392e-5
921.25	8.207023e-5
921.875	8.305078e-5
922.5	8.42796e-5
923.125	8.588217e-5
923.75	8.559247e-5
924.375	8.445765e-5
925	8.261148e-5
925.625	8.121713e-5
926.25	8.143537e-5
926.875	8.349396e-5
927.5	8.440422e-5
928.125	8.506319e-5
928.75	8.417758e-5
929.375	8.178571e-5
930	8.142916e-5
930.625	8.108471e-5
931.25	8.196746e-5
931.875	8.319881e-5
932.5	8.286506e-5
933.125	8.335669e-5
933.75	8.188946e-5
934.375	8.07259e-5
935	8.16254e-5
935.625	8.175169e-5
936.25	8.15421e-5
936.875	8.170327e-5
937.5	8.059954e-5
938.125	8.101096e-5
938.75	8.161946e-5
939.375	8.124235e-5
940	8.191106e-5
940.625	8.086047e-5
941.25	7.977593e-5
941.875	7.932353e-5
942.5	7.920317e-5
943.125	8.05154e-5
943.75	8.162014e-5
944.375	8.17908e-5
945	8.09031e-5
945.625	7.880429e-5
946.25	7.77989e-5
946.875	7.81731e-5
947.5	7.89878e-5
948.125	8.069092e-5
948.75	8.196214e-5
949.375	8.024328e-5
950	7.90819e-5
950.625	7.716108e-5
951.25	7.662669e-5
951.875	7.85931e-5
952.5	7.930031e-5
953.125	8.054516e-5
953.75	8.033076e-5
954.375	7.844761e-5
955	7.743924e-5
955.625	7.664203e-5
956.25	7.69969e-5
956.875	7.876001e-5
957.5	7.895469e-5
958.125	7.885329e-5
958.75	7.840621e-5
959.375	7.69844e-5
960	7.736509e-5
960.625	7.709186e-5
961.25	7.675718e-5
961.875	7.762208e-5
962.5	7.708496e-5
963.125	7.67148e-5
963.75	7.690098e-5
964.375	7.673512e-5
965	7.741423e-5
965.625	7.682237e-5
966.25	7.539304e-5
966.875	7.548969e-5
967.5	7.478112e-5
968.125	7.544594e-5
968.75	7.697465e-5
969.375	7.654144e-5
970	7.695889e-5
970.625	7.543882e-5
971.25	7.337768e-5
971.875	7.350057e-5
972.5	7.381633e-5
973.125	7.547387e-5
973.75	7.717244e-5
974.375	7.624135e-5
975	7.500331e-5
975.625	7.350623e-5
976.25	7.228656e-5
976.875	7.261555e-5
977.5	7.408162e-5
978.125	7.545626e-5
978.75	7.636825e-5
979.375	7.436134e-5
980	7.305032e-5
980.625	7.218568e-5
981.25	7.174013e-5
981.875	7.330091e-5
982.5	7.381183e-5
983.125	7.383723e-5
983.75	7.39095e-5
984.375	7.231916e-5
985	7.22016e-5
985.625	7.221485e-5
986.25	7.201151e-5
986.875	7.299474e-5
987.5	7.2343e-5
988.125	7.146472e-5
988.75	7.189812e-5
989.375	7.209864e-5
990	7.249274e-5
990.625	7.25549e-5
991.25	7.114118e-5
991.875	7.099879e-5
992.5	6.979879e-5
993.125	7.007398e-5
993.75	7.131529e-5
994.375	7.224575e-5
995	7.219573e-5
995.625	7.119399e-5
996.25	6.887866e-5
996.875	6.821791e-5
997.5	6.858723e-5
998.125	6.958088e-5
998.75	7.154994e-5
999.375	7.152263e-5
1000	7.055011e-5
