Source File Name:	Analyzer
Signal:	FFT - Vib Velocity - Magnitude

Frequency	Magnitude
[ Hz ]	[ m/s ]
20	0.001728955
20.625	0.001161411
21.25	0.001001728
21.875	0.0008956639
22.5	0.0008003863
23.125	0.0007271037
23.75	0.0006669408
24.375	0.0006027909
25	0.0005642035
25.625	0.0005157405
26.25	0.0004861813
26.875	0.0004606586
27.5	0.0004310747
28.125	0.0004141763
28.75	0.000411436
29.375	0.0004062146
30	0.0004094501
30.625	0.0004296385
31.25	0.0004340143
31.875	0.0004633854
32.5	0.000493422
33.125	0.0005158267
33.75	0.0005467629
34.375	0.0005643965
35	0.0005702224
35.625	0.0005774252
36.25	0.0005682386
36.875	0.00053999
37.5	0.0005187797
38.125	0.0004776919
38.75	0.0004554708
39.375	0.0004425953
40	0.000430409
40.625	0.000422567
41.25	0.0004164077
41.875	0.0004014001
42.5	0.0003928987
43.125	0.000396656
43.75	0.0003810611
44.375	0.000380513
45	0.0003744104
45.625	0.0003625076
46.25	0.0003647585
46.875	0.0003653048
47.5	0.0003555595
48.125	0.0003546355
48.75	0.0003539652
49.375	0.0003413346
50	0.0003484851
50.625	0.0003411724
51.25	0.0003367783
51.875	0.0003331676
52.5	0.0003280084
53.125	0.0003197659
53.75	0.0003225137
54.375	0.0003165023
55	0.0003031592
55.625	0.0003083622
56.25	0.0002928887
56.875	0.0003040682
57.5	0.0002907418
58.125	0.0002900551
58.75	0.0002855141
59.375	0.0002859319
60	0.0002731465
60.625	0.000274026
61.25	0.0002785381
61.875	0.0002589845
62.5	0.0002696295
63.125	0.0002596141
63.75	0.0002555615
64.375	0.0002587709
65	0.0002556294
65.625	0.0002456512
66.25	0.0002461905
66.875	0.0002434139
67.5	0.0002322766
68.125	0.0002426792
68.75	0.0002308504
69.375	0.0002255691
70	0.0002280101
70.625	0.0002199524
71.25	0.0002198204
71.875	0.0002231749
72.5	0.0002156684
73.125	0.0002098621
73.75	0.000216717
74.375	0.0002019436
75	0.0002095055
75.625	0.0002099136
76.25	0.0001975855
76.875	0.0002007075
77.5	0.0001982619
78.125	0.0001911261
78.75	0.0001964888
79.375	0.0001968509
80	0.0001825449
80.625	0.0001912548
81.25	0.0001824188
81.875	0.0001803823
82.5	0.0001876242
83.125	0.0001793437
83.75	0.0001727507
84.375	0.0001770132
85	0.000169851
85.625	0.0001658063
86.25	0.0001764214
86.875	0.0001615423
87.5	0.0001644426
88.125	0.0001662986
88.75	0.0001571254
89.375	0.0001649874
90	0.0001651106
90.625	0.0001574999
91.25	0.0001605003
91.875	0.0001611409
92.5	0.0001522673
93.125	0.0001647879
93.75	0.0001576673
94.375	0.0001538336
95	0.0001598009
95.625	0.0001532851
96.25	0.000154977
96.875	0.0001595565
97.5	0.0001568043
98.125	0.0001512161
98.75	0.0001601765
99.375	0.0001510251
100	0.0001572284
100.625	0.0001609033
101.25	0.0001524456
101.875	0.0001571185
102.5	0.0001582592
103.125	0.0001552654
103.75	0.0001593464
104.375	0.0001637243
105	0.0001533538
105.625	0.0001646842
106.25	0.0001611401
106.875	0.0001603872
107.5	0.0001688017
108.125	0.0001630552
108.75	0.0001646107
109.375	0.0001679119
110	0.000168877
110.625	0.0001674301
111.25	0.00017571
111.875	0.0001691499
112.5	0.0001726443
113.125	0.000177476
113.75	0.0001756278
114.375	0.0001797179
115	0.0001811692
115.625	0.0001802628
116.25	0.0001801639
116.875	0.0001901729
117.5	0.0001831871
118.125	0.0001911251
118.75	0.0001915824
119.375	0.0001869711
120	0.0001958685
120.625	0.0001963921
121.25	0.0001969306
121.875	0.0002000315
122.5	0.0002013739
123.125	0.0001966379
123.75	0.000208321
124.375	0.0002061295
125	0.0002081525
125.625	0.0002121339
126.25	0.0002089861
126.875	0.0002124298
127.5	0.0002173423
128.125	0.0002223623
128.75	0.0002177997
129.375	0.000226715
130	0.0002209274
130.625	0.0002253845
131.25	0.0002353667
131.875	0.0002318106
132.5	0.0002353392
133.125	0.0002385434
133.75	0.0002353247
134.375	0.0002410116
135	0.0002526127
135.625	0.0002435528
136.25	0.0002542907
136.875	0.0002525164
137.5	0.0002503068
138.125	0.0002642149
138.75	0.0002645314
139.375	0.0002658834
140	0.0002702991
140.625	0.0002723764
141.25	0.00027008
141.875	0.0002867786
142.5	0.0002851189
143.125	0.0002867836
143.75	0.00029595
144.375	0.000292358
145	0.000299413
145.625	0.0003126739
146.25	0.0003126009
146.875	0.0003143447
147.5	0.0003293321
148.125	0.0003205642
148.75	0.0003393451
149.375	0.0003509727
150	0.0003476434
150.625	0.000366213
151.25	0.0003709008
151.875	0.0003767129
152.5	0.0004002926
153.125	0.0004114537
153.75	0.0004165923
154.375	0.0004442398
155	0.0004480017
155.625	0.0004693079
156.25	0.0004974851
156.875	0.0005071052
157.5	0.0005319662
158.125	0.0005556601
158.75	0.0005729829
159.375	0.0006028222
160	0.0006343702
160.625	0.0006460263
161.25	0.0006812616
161.875	0.0006991431
162.5	0.0007181723
163.125	0.0007494484
163.75	0.0007642976
164.375	0.0007833242
165	0.0008140786
165.625	0.0008321964
166.25	0.0008594678
166.875	0.0008954438
167.5	0.0009043316
168.125	0.0009369419
168.75	0.000949787
169.375	0.0009534342
170	0.0009630584
170.625	0.0009509899
171.25	0.0009307083
171.875	0.0009202129
172.5	0.0008833875
173.125	0.0008557237
173.75	0.0008321737
174.375	0.0007856343
175	0.0007674099
175.625	0.0007358735
176.25	0.0007026203
176.875	0.000686039
177.5	0.00066093
178.125	0.0006337074
178.75	0.0006294608
179.375	0.0006027712
180	0.0005871588
180.625	0.0005847122
181.25	0.0005591074
181.875	0.0005589994
182.5	0.0005515194
183.125	0.0005370564
183.75	0.0005350932
184.375	0.0005311669
185	0.0005196022
185.625	0.000525228
186.25	0.0005198711
186.875	0.00051013
187.5	0.0005154297
188.125	0.0005052684
188.75	0.0005047951
189.375	0.0005042412
190	0.0004992303
190.625	0.0004904303
191.25	0.0004922332
191.875	0.0004838741
192.5	0.0004804535
193.125	0.0004844265
193.75	0.0004707252
194.375	0.0004709684
195	0.0004674418
195.625	0.0004615606
196.25	0.0004617208
196.875	0.0004625308
197.5	0.0004508944
198.125	0.0004529116
198.75	0.0004487512
199.375	0.0004419068
200	0.0004485739
200.625	0.0004386064
201.25	0.000436669
201.875	0.0004324107
202.5	0.0004284572
203.125	0.0004245313
203.75	0.0004244205
204.375	0.0004181237
205	0.0004111985
205.625	0.0004092746
206.25	0.0004009199
206.875	0.0004003231
207.5	0.000395647
208.125	0.0003921741
208.75	0.000383942
209.375	0.0003840697
210	0.000378637
210.625	0.0003781659
211.25	0.0003825499
211.875	0.000376363
212.5	0.0003821642
213.125	0.0003817525
213.75	0.0003854128
214.375	0.0003905568
215	0.0003973904
215.625	0.0003994277
216.25	0.0004048298
216.875	0.0004107965
217.5	0.0004130039
218.125	0.0004243524
218.75	0.0004278219
219.375	0.0004348034
220	0.0004384405
220.625	0.0004456735
221.25	0.0004475889
221.875	0.0004562329
222.5	0.0004594898
223.125	0.0004572915
223.75	0.0004615128
224.375	0.000453237
225	0.000451927
225.625	0.0004456596
226.25	0.0004354819
226.875	0.000421799
227.5	0.0004113553
228.125	0.0003909731
228.75	0.0003794342
229.375	0.0003652337
230	0.0003438808
230.625	0.0003342351
231.25	0.0003135716
231.875	0.0003002968
232.5	0.0002893459
233.125	0.0002769251
233.75	0.0002621631
234.375	0.000255
235	0.0002397446
235.625	0.0002289549
236.25	0.000226027
236.875	0.0002106322
237.5	0.0002068958
238.125	0.0001982012
238.75	0.0001881969
239.375	0.0001827684
240	0.0001807802
240.625	0.0001708155
241.25	0.0001676498
241.875	0.0001647677
242.5	0.0001514622
243.125	0.0001555953
243.75	0.0001486024
244.375	0.0001429354
245	0.0001426255
245.625	0.0001372517
246.25	0.0001300032
246.875	0.0001330015
247.5	0.0001292337
248.125	0.0001217856
248.75	0.0001285941
249.375	0.0001174096
250	0.0001174104
250.625	0.0001202188
251.25	0.00011301
251.875	0.0001132035
252.5	0.000114353
253.125	0.0001077668
253.75	0.0001065158
254.375	0.000111814
255	0.000100719
255.625	0.0001061386
256.25	0.0001041881
256.875	9.635899e-5
257.5	0.0001011096
258.125	9.931297e-5
258.75	9.331373e-5
259.375	9.598192e-5
260	9.526582e-5
260.625	8.529027e-5
261.25	9.563559e-5
261.875	8.784257e-5
262.5	8.388078e-5
263.125	8.992504e-5
263.75	8.040293e-5
264.375	8.082081e-5
265	8.453516e-5
265.625	7.669334e-5
266.25	7.484305e-5
266.875	7.968845e-5
267.5	6.646426e-5
268.125	7.262763e-5
268.75	7.03964e-5
269.375	5.981764e-5
270	6.405891e-5
270.625	5.793635e-5
271.25	5.131396e-5
271.875	5.3372e-5
272.5	4.876676e-5
273.125	3.704499e-5
273.75	4.292599e-5
274.375	3.244874e-5
275	2.795788e-5
275.625	3.078182e-5
276.25	1.987667e-5
276.875	1.54826e-5
277.5	1.896809e-5
278.125	1.490831e-5
278.75	9.85752e-6
279.375	2.176674e-5
280	2.209543e-5
280.625	1.664049e-5
281.25	2.90406e-5
281.875	2.775418e-5
282.5	2.934096e-5
283.125	3.831767e-5
283.75	4.019092e-5
284.375	3.691364e-5
285	4.810912e-5
285.625	4.754704e-5
286.25	4.773553e-5
286.875	6.265884e-5
287.5	5.475861e-5
288.125	6.088277e-5
288.75	6.834717e-5
289.375	6.565615e-5
290	7.333267e-5
290.625	8.131302e-5
291.25	7.519668e-5
291.875	8.364681e-5
292.5	8.943785e-5
293.125	8.489964e-5
293.75	9.949224e-5
294.375	9.758546e-5
295	9.747505e-5
295.625	0.0001049808
296.25	0.0001076239
296.875	0.0001086719
297.5	0.00011876
298.125	0.0001192157
298.75	0.0001170484
299.375	0.000129775
300	0.0001277123
300.625	0.000134636
301.25	0.0001436527
301.875	0.0001425592
302.5	0.0001450118
303.125	0.0001567316
303.75	0.0001553777
304.375	0.0001632057
305	0.0001736699
305.625	0.0001657286
306.25	0.0001781055
306.875	0.0001809588
307.5	0.0001824281
308.125	0.0001921993
308.75	0.0001948625
309.375	0.0001933034
310	0.0002013074
310.625	0.0002054993
311.25	0.000205356
311.875	0.0002169169
312.5	0.0002151068
313.125	0.0002171448
313.75	0.0002232963
314.375	0.000227007
315	0.0002279798
315.625	0.0002373146
316.25	0.0002375665
316.875	0.0002356655
317.5	0.0002487217
318.125	0.0002440208
318.75	0.0002517899
319.375	0.0002581184
320	0.0002552125
320.625	0.0002601285
321.25	0.0002663395
321.875	0.0002658262
322.5	0.0002715468
323.125	0.0002779085
323.75	0.0002736281
324.375	0.0002822752
325	0.0002838863
325.625	0.0002862807
326.25	0.0002907331
326.875	0.0002954209
327.5	0.0002949021
328.125	0.0002984275
328.75	0.0003063054
329.375	0.0003011482
330	0.0003120338
330.625	0.0003122316
331.25	0.0003116809
331.875	0.0003200251
332.5	0.0003211898
333.125	0.000321456
333.75	0.0003287677
334.375	0.0003299255
335	0.0003288356
335.625	0.0003392918
336.25	0.0003354205
336.875	0.0003394919
337.5	0.0003438875
338.125	0.0003442783
338.75	0.0003467398
339.375	0.0003514549
340	0.0003534057
340.625	0.0003501755
341.25	0.0003603013
341.875	0.0003551495
342.5	0.0003594676
343.125	0.0003659896
343.75	0.00036086
344.375	0.0003643623
345	0.0003684684
345.625	0.0003652848
346.25	0.0003693425
346.875	0.0003755795
347.5	0.0003663936
348.125	0.0003741279
348.75	0.000372775
349.375	0.0003704275
350	0.0003772557
350.625	0.000375457
351.25	0.0003729739
351.875	0.0003730478
352.5	0.0003759245
353.125	0.0003692659
353.75	0.0003780732
354.375	0.0003742969
355	0.00036817
355.625	0.0003740607
356.25	0.0003684912
356.875	0.0003679046
357.5	0.0003729837
358.125	0.0003685523
358.75	0.0003622555
359.375	0.0003699392
360	0.0003600734
360.625	0.0003634367
361.25	0.0003679733
361.875	0.0003580857
362.5	0.000361171
363.125	0.0003592296
363.75	0.0003562275
364.375	0.0003565104
365	0.000361216
365.625	0.0003521847
366.25	0.0003540096
366.875	0.000355265
367.5	0.0003474912
368.125	0.0003550172
368.75	0.0003525051
369.375	0.0003473917
370	0.0003491924
370.625	0.0003490166
371.25	0.0003420059
371.875	0.0003503442
372.5	0.0003460625
373.125	0.0003399774
373.75	0.0003473546
374.375	0.0003381784
375	0.0003408607
375.625	0.0003421258
376.25	0.0003392045
376.875	0.0003359008
377.5	0.0003384322
378.125	0.0003343201
378.75	0.00033294
379.375	0.0003382779
380	0.0003295787
380.625	0.0003319672
381.25	0.0003312424
381.875	0.0003282145
382.5	0.0003286153
383.125	0.0003305578
383.75	0.0003243611
384.375	0.0003250249
385	0.0003273555
385.625	0.000319417
386.25	0.0003269023
386.875	0.0003211277
387.5	0.0003191761
388.125	0.0003202705
388.75	0.0003179215
389.375	0.0003176293
390	0.0003176472
390.625	0.0003170336
391.25	0.0003110177
391.875	0.0003157198
392.5	0.0003108275
393.125	0.0003127879
393.75	0.0003120516
394.375	0.0003082577
395	0.0003070465
395.625	0.0003057884
396.25	0.0003070418
396.875	0.0003035466
397.5	0.0003066597
398.125	0.0002988855
398.75	0.0003003073
399.375	0.0002987578
400	0.0002976078
400.625	0.0002996138
401.25	0.0002944228
401.875	0.0002943224
402.5	0.0002894557
403.125	0.0002921527
403.75	0.0002895529
404.375	0.0002910926
405	0.000286581
405.625	0.0002839854
406.25	0.0002830212
406.875	0.0002804139
407.5	0.0002845903
408.125	0.0002780351
408.75	0.0002790892
409.375	0.0002731762
410	0.0002723702
410.625	0.0002724553
411.25	0.0002718599
411.875	0.0002697401
412.5	0.0002646366
413.125	0.000264534
413.75	0.0002581283
414.375	0.0002636658
415	0.0002591449
415.625	0.0002565892
416.25	0.0002540754
416.875	0.0002489834
417.5	0.0002485697
418.125	0.0002483494
418.75	0.0002485876
419.375	0.0002406206
420	0.0002432842
420.625	0.0002342953
421.25	0.0002355991
421.875	0.0002376991
422.5	0.0002311948
423.125	0.0002308473
423.75	0.0002261659
424.375	0.0002227468
425	0.0002217817
425.625	0.0002255617
426.25	0.000216309
426.875	0.0002175445
427.5	0.0002130832
428.125	0.0002065689
428.75	0.0002124063
429.375	0.0002072462
430	0.0002049529
430.625	0.0002005265
431.25	0.0001994169
431.875	0.0001922178
432.5	0.0001977278
433.125	0.0001941603
433.75	0.0001863391
434.375	0.0001898978
435	0.0001797067
435.625	0.0001807725
436.25	0.0001822586
436.875	0.0001782766
437.5	0.0001718229
438.125	0.000173951
438.75	0.0001651615
439.375	0.0001653269
440	0.0001701491
440.625	0.0001580125
441.25	0.0001604936
441.875	0.0001546779
442.5	0.0001509397
443.125	0.0001518211
443.75	0.0001525888
444.375	0.0001447332
445	0.000141443
445.625	0.0001431712
446.25	0.0001324833
446.875	0.0001409264
447.5	0.0001364461
448.125	0.0001291908
448.75	0.0001295401
449.375	0.0001257988
450	0.0001217371
450.625	0.0001267389
451.25	0.0001247571
451.875	0.0001139144
452.5	0.0001202913
453.125	0.0001110507
453.75	0.0001128083
454.375	0.0001170683
455	0.0001114974
455.625	0.0001082283
456.25	0.0001063497
456.875	0.000106269
457.5	0.0001014041
458.125	0.0001119869
458.75	0.000103031
459.375	9.983259e-5
460	0.0001033823
460.625	9.496491e-5
461.25	0.0001013202
461.875	0.0001036723
462.5	9.97179e-5
463.125	9.568338e-5
463.75	9.930733e-5
464.375	9.24719e-5
465	9.920239e-5
465.625	0.0001033985
466.25	9.528732e-5
466.875	9.84162e-5
467.5	9.435745e-5
468.125	9.538855e-5
468.75	9.736911e-5
469.375	0.0001042092
470	9.670252e-5
470.625	9.708345e-5
471.25	9.957304e-5
471.875	9.194775e-5
472.5	0.000105056
473.125	0.00010217
473.75	0.0001002239
474.375	0.0001006792
475	9.891529e-5
475.625	9.89324e-5
476.25	0.0001052738
476.875	0.0001073625
477.5	0.0001009442
478.125	0.0001062947
478.75	0.0001005287
479.375	0.0001045544
480	0.0001091924
480.625	0.0001097574
481.25	0.0001072211
481.875	0.0001076371
482.5	0.0001081972
483.125	0.0001057421
483.75	0.0001175054
484.375	0.000110196
485	0.000112827
485.625	0.0001132678
486.25	0.0001092819
486.875	0.0001157166
487.5	0.0001165129
488.125	0.0001180719
488.75	0.0001149226
489.375	0.0001186258
490	0.0001143887
490.625	0.0001205958
491.25	0.0001222751
491.875	0.0001199417
492.5	0.0001218747
493.125	0.0001196021
493.75	0.0001223638
494.375	0.0001225291
495	0.000128334
495.625	0.0001215542
496.25	0.0001263142
496.875	0.0001243891
497.5	0.0001238981
498.125	0.0001308631
498.75	0.000125038
499.375	0.0001288448
500	0.0001253586
500.625	0.0001280952
501.25	0.0001280761
501.875	0.0001311574
502.5	0.0001294373
503.125	0.00012738
503.75	0.0001294548
504.375	0.0001267811
505	0.0001321173
505.625	0.0001294824
506.25	0.0001305709
506.875	0.00012645
507.5	0.0001289651
508.125	0.0001281399
508.75	0.0001301561
509.375	0.000131987
510	0.0001247099
510.625	0.0001296128
511.25	0.0001237243
511.875	0.0001292339
512.5	0.0001295919
513.125	0.0001275276
513.75	0.0001266786
514.375	0.0001234429
515	0.0001250403
515.625	0.0001245526
516.25	0.0001297984
516.875	0.0001233248
517.5	0.0001245736
518.125	0.0001206492
518.75	0.000121534
519.375	0.0001240632
520	0.0001237854
520.625	0.0001227385
521.25	0.0001173901
521.875	0.0001204883
522.5	0.0001146073
523.125	0.0001225258
523.75	0.0001197553
524.375	0.0001163327
525	0.0001172589
525.625	0.0001117016
526.25	0.0001148841
526.875	0.0001153574
527.5	0.0001170608
528.125	0.0001108647
528.75	0.0001128581
529.375	0.0001078921
530	0.0001091263
530.625	0.0001132206
531.25	0.0001088133
531.875	0.0001090354
532.5	0.0001049439
533.125	0.0001053332
533.75	0.0001021909
534.375	0.0001095344
535	0.0001033232
535.625	0.0001021182
536.25	0.0001035785
536.875	9.542909e-5
537.5	0.000102278
538.125	0.0001002614
538.75	9.959857e-5
539.375	9.662619e-5
540	9.778916e-5
540.625	9.232984e-5
541.25	9.504967e-5
541.875	9.787529e-5
542.5	9.070331e-5
543.125	9.503397e-5
543.75	9.007254e-5
544.375	8.83733e-5
545	8.937567e-5
545.625	9.185129e-5
546.25	8.540761e-5
546.875	8.817852e-5
547.5	8.728712e-5
548.125	7.892114e-5
548.75	8.832525e-5
549.375	8.150234e-5
550	8.1167e-5
550.625	8.238947e-5
551.25	7.932551e-5
551.875	7.535076e-5
552.5	7.883713e-5
553.125	7.749609e-5
553.75	7.150446e-5
554.375	7.92462e-5
555	7.009256e-5
555.625	7.027062e-5
556.25	7.247127e-5
556.875	6.801508e-5
557.5	6.661296e-5
558.125	7.023608e-5
558.75	6.552089e-5
559.375	6.054851e-5
560	6.866485e-5
560.625	5.736757e-5
561.25	6.182652e-5
561.875	6.348758e-5
562.5	5.595967e-5
563.125	5.779663e-5
563.75	5.831284e-5
564.375	5.342581e-5
565	5.238414e-5
565.625	5.95774e-5
566.25	4.831212e-5
566.875	5.318585e-5
567.5	5.37414e-5
568.125	4.484952e-5
568.75	5.103675e-5
569.375	5.081059e-5
570	4.651099e-5
570.625	4.714099e-5
571.25	5.116053e-5
571.875	4.014962e-5
572.5	4.782039e-5
573.125	4.958874e-5
573.75	4.138675e-5
574.375	4.920971e-5
575	4.596221e-5
575.625	4.120223e-5
576.25	4.481148e-5
576.875	4.871185e-5
577.5	4.054184e-5
578.125	4.835e-5
578.75	4.855041e-5
579.375	3.834833e-5
580	4.939524e-5
580.625	4.588703e-5
581.25	4.412759e-5
581.875	4.930953e-5
582.5	4.951312e-5
583.125	4.264689e-5
583.75	4.950379e-5
584.375	5.126877e-5
585	4.382074e-5
585.625	5.662112e-5
586.25	5.12e-5
586.875	4.76708e-5
587.5	5.465612e-5
588.125	5.285541e-5
588.75	5.082615e-5
589.375	5.939025e-5
590	5.787768e-5
590.625	5.11829e-5
591.25	6.26614e-5
591.875	5.60351e-5
592.5	5.751586e-5
593.125	6.552832e-5
593.75	6.165552e-5
594.375	6.026322e-5
595	6.602245e-5
595.625	6.398621e-5
596.25	6.073677e-5
596.875	7.453829e-5
597.5	6.568664e-5
598.125	6.731415e-5
598.75	7.438492e-5
599.375	6.567638e-5
600	7.117716e-5
600.625	7.75891e-5
601.25	7.317232e-5
601.875	7.350891e-5
602.5	8.112488e-5
603.125	7.120058e-5
603.75	7.853721e-5
604.375	8.420555e-5
605	7.739014e-5
605.625	8.370663e-5
606.25	8.481189e-5
606.875	7.946434e-5
607.5	8.342259e-5
608.125	9.189687e-5
608.75	8.244198e-5
609.375	9.146441e-5
610	9.247143e-5
610.625	8.22381e-5
611.25	9.473937e-5
611.875	9.313981e-5
612.5	9.135283e-5
613.125	9.850576e-5
613.75	9.68991e-5
614.375	9.004929e-5
615	0.0001007429
615.625	9.887908e-5
616.25	9.671212e-5
616.875	0.000106891
617.5	9.9635e-5
618.125	9.892046e-5
618.75	0.0001047816
619.375	0.000104686
620	0.0001028136
620.625	0.0001123109
621.25	0.000105209
621.875	0.0001025343
622.5	0.000113117
623.125	0.0001044109
623.75	0.0001115933
624.375	0.000115347
625	0.000108303
625.625	0.0001105011
626.25	0.0001149311
626.875	0.0001100286
627.5	0.0001161166
628.125	0.0001197524
628.75	0.0001108802
629.375	0.0001171973
630	0.0001161764
630.625	0.0001153857
631.25	0.0001199097
631.875	0.0001219608
632.5	0.0001159141
633.125	0.0001188632
633.75	0.000121668
634.375	0.0001156508
635	0.0001265773
635.625	0.0001228202
636.25	0.0001199854
636.875	0.0001244259
637.5	0.0001214728
638.125	0.000121968
638.75	0.0001274913
639.375	0.0001255349
640	0.0001229087
640.625	0.0001278715
641.25	0.0001227562
641.875	0.0001268866
642.5	0.0001286611
643.125	0.0001279037
643.75	0.0001275358
644.375	0.0001279131
645	0.0001287972
645.625	0.0001263189
646.25	0.0001330667
646.875	0.0001285961
647.5	0.0001295693
648.125	0.0001319622
648.75	0.0001287116
649.375	0.0001311282
650	0.0001322451
650.625	0.0001318189
651.25	0.0001312865
651.875	0.0001343575
652.5	0.0001302339
653.125	0.0001332217
653.75	0.0001329023
654.375	0.0001334765
655	0.0001337926
655.625	0.0001338187
656.25	0.0001344086
656.875	0.0001307105
657.5	0.0001368204
658.125	0.0001326215
658.75	0.0001347175
659.375	0.0001371996
660	0.0001325954
660.625	0.000134377
661.25	0.0001354214
661.875	0.0001341188
662.5	0.0001351804
663.125	0.0001386983
663.75	0.000132169
664.375	0.0001356132
665	0.0001351201
665.625	0.0001333489
666.25	0.0001377447
666.875	0.0001368623
667.5	0.0001342786
668.125	0.0001337554
668.75	0.0001366767
669.375	0.0001313255
670	0.0001384851
670.625	0.0001370783
671.25	0.0001314342
671.875	0.0001363978
672.5	0.0001320793
673.125	0.0001330076
673.75	0.0001377242
674.375	0.0001360416
675	0.0001308469
675.625	0.0001359757
676.25	0.0001301534
676.875	0.000132692
677.5	0.0001385124
678.125	0.0001318246
678.75	0.0001329411
679.375	0.0001323165
680	0.0001302354
680.625	0.000131736
681.25	0.0001374553
681.875	0.0001307453
682.5	0.0001313434
683.125	0.0001326872
683.75	0.000126424
684.375	0.0001338744
685	0.0001336131
685.625	0.0001300577
686.25	0.0001305685
686.875	0.0001304218
687.5	0.0001256905
688.125	0.0001328958
688.75	0.0001324632
689.375	0.0001272719
690	0.0001320756
690.625	0.0001259725
691.25	0.000127472
691.875	0.0001312329
692.5	0.0001303005
693.125	0.000127294
693.75	0.0001292536
694.375	0.0001259331
695	0.0001254817
695.625	0.0001314017
696.25	0.0001261716
696.875	0.0001280166
697.5	0.0001265021
698.125	0.0001248716
698.75	0.0001251607
699.375	0.0001285792
700	0.0001259124
700.625	0.0001248392
701.25	0.0001270228
701.875	0.0001215494
702.5	0.0001261489
703.125	0.0001252656
703.75	0.000124541
704.375	0.0001241725
705	0.0001245227
705.625	0.0001224781
706.25	0.0001236171
706.875	0.0001250252
707.5	0.0001210316
708.125	0.0001247168
708.75	0.000121406
709.375	0.0001221852
710	0.0001216933
710.625	0.000122314
711.25	0.0001208131
711.875	0.0001203027
712.5	0.0001225119
713.125	0.0001186725
713.75	0.0001216292
714.375	0.0001195602
715	0.000118875
715.625	0.0001194206
716.25	0.0001206653
716.875	0.0001177414
717.5	0.000119334
718.125	0.0001189707
718.75	0.0001146097
719.375	0.0001206311
720	0.0001168244
720.625	0.0001177297
721.25	0.0001169456
721.875	0.0001156464
722.5	0.0001145357
723.125	0.000116898
723.75	0.0001175439
724.375	0.0001133405
725	0.0001175661
725.625	0.0001121118
726.25	0.0001135803
726.875	0.0001164187
727.5	0.0001148017
728.125	0.0001128786
728.75	0.0001153573
729.375	0.0001107397
730	0.0001109466
730.625	0.0001177703
731.25	0.0001097293
731.875	0.0001149602
732.5	0.0001119311
733.125	0.0001084494
733.75	0.0001126751
734.375	0.0001130405
735	0.0001113877
735.625	0.0001118782
736.25	0.0001120401
736.875	0.0001062951
737.5	0.0001132385
738.125	0.0001114761
738.75	0.0001097862
739.375	0.0001117981
740	0.0001093765
740.625	0.0001065516
741.25	0.0001117453
741.875	0.0001117675
742.5	0.0001067541
743.125	0.0001149942
743.75	0.0001054068
744.375	0.0001080079
745	0.0001124389
745.625	0.0001068693
746.25	0.0001110629
746.875	0.0001104487
747.5	0.0001063198
748.125	0.0001078913
748.75	0.0001114871
749.375	0.0001060504
750	0.0001118013
750.625	0.0001091593
751.25	0.0001059386
751.875	0.0001092001
752.5	0.0001089499
753.125	0.0001081222
753.75	0.0001088993
754.375	0.0001111602
755	0.0001028042
755.625	0.0001111131
756.25	0.0001080428
756.875	0.0001060114
757.5	0.0001127154
758.125	0.0001054907
758.75	0.0001067001
759.375	0.00010986
760	0.0001066891
760.625	0.0001073135
761.25	0.0001121742
761.875	0.0001040485
762.5	0.000108953
763.125	0.0001086676
763.75	0.0001050663
764.375	0.0001106651
765	0.0001072666
765.625	0.0001080755
766.25	0.000106146
766.875	0.0001092441
767.5	0.0001047862
768.125	0.0001089422
768.75	0.0001093418
769.375	0.0001043234
770	0.0001097777
770.625	0.000105873
771.25	0.0001057388
771.875	0.0001087934
772.5	0.0001072751
773.125	0.0001042767
773.75	0.0001104094
774.375	0.0001040185
775	0.0001066896
775.625	0.0001097168
776.25	0.0001027983
776.875	0.0001097268
777.5	0.0001049488
778.125	0.0001062861
778.75	0.0001065567
779.375	0.000106395
780	0.0001054331
780.625	0.0001060947
781.25	0.0001068314
781.875	0.0001039307
782.5	0.0001070424
783.125	0.0001044785
783.75	0.0001055184
784.375	0.0001051716
785	0.0001067177
785.625	0.000103039
786.25	0.000106632
786.875	0.0001039872
787.5	0.0001026239
788.125	0.0001087209
788.75	0.0001006408
789.375	0.0001072018
790	0.0001035606
790.625	0.0001019973
791.25	0.0001055577
791.875	0.0001031839
792.5	0.000103871
793.125	0.0001043112
793.75	0.0001022095
794.375	0.0001009037
795	0.000104839
795.625	0.000100347
796.25	0.0001051269
796.875	0.000101141
797.5	0.0001004541
798.125	0.0001010406
798.75	0.0001002526
799.375	0.0001033331
800	9.915379e-5
800.625	0.0001031536
801.25	9.598435e-5
801.875	0.0001001832
802.5	0.0001002009
803.125	9.79573e-5
803.75	0.0001017467
804.375	9.700775e-5
805	9.569198e-5
805.625	9.779548e-5
806.25	9.742128e-5
806.875	9.569516e-5
807.5	0.0001009669
808.125	9.132789e-5
808.75	9.538398e-5
809.375	9.557873e-5
810	9.204431e-5
810.625	9.909446e-5
811.25	9.25058e-5
811.875	9.2982e-5
812.5	9.045975e-5
813.125	9.24469e-5
813.75	9.133811e-5
814.375	9.386834e-5
815	9.192009e-5
815.625	8.713828e-5
816.25	8.987528e-5
816.875	8.773395e-5
817.5	8.988661e-5
818.125	8.975836e-5
818.75	8.895697e-5
819.375	8.2144e-5
820	8.855487e-5
820.625	8.403724e-5
821.25	8.5358e-5
821.875	8.996674e-5
822.5	7.927888e-5
823.125	8.480642e-5
823.75	8.160809e-5
824.375	8.175542e-5
825	8.369498e-5
825.625	8.267512e-5
826.25	7.813351e-5
826.875	7.99993e-5
827.5	7.939275e-5
828.125	7.689695e-5
828.75	8.151113e-5
829.375	7.557623e-5
830	7.705448e-5
830.625	7.441454e-5
831.25	7.70756e-5
831.875	7.343188e-5
832.5	7.569585e-5
833.125	7.508576e-5
833.75	6.903777e-5
834.375	7.625715e-5
835	6.932546e-5
835.625	7.21224e-5
836.25	7.181404e-5
836.875	6.857096e-5
837.5	6.81442e-5
838.125	7.105781e-5
838.75	6.705098e-5
839.375	6.745826e-5
840	6.926937e-5
840.625	6.213329e-5
841.25	6.893362e-5
841.875	6.432879e-5
842.5	6.575356e-5
843.125	6.357043e-5
843.75	6.32378e-5
844.375	6.207286e-5
845	6.20502e-5
845.625	6.553745e-5
846.25	5.91029e-5
846.875	6.242854e-5
847.5	5.880359e-5
848.125	5.868655e-5
848.75	5.997479e-5
849.375	6.161453e-5
850	5.590449e-5
850.625	5.860549e-5
851.25	5.712665e-5
851.875	5.296154e-5
852.5	6.249319e-5
853.125	5.411378e-5
853.75	5.630802e-5
854.375	5.526892e-5
855	5.283954e-5
855.625	5.486663e-5
856.25	5.803928e-5
856.875	5.459457e-5
857.5	5.227686e-5
858.125	5.581858e-5
858.75	4.927861e-5
859.375	5.687928e-5
860	5.498638e-5
860.625	5.340781e-5
861.25	5.122118e-5
861.875	5.377801e-5
862.5	5.043838e-5
863.125	5.500239e-5
863.75	5.837256e-5
864.375	4.748093e-5
865	5.644558e-5
865.625	5.136554e-5
866.25	5.198874e-5
866.875	5.835103e-5
867.5	5.506125e-5
868.125	5.069175e-5
868.75	5.728361e-5
869.375	5.26432e-5
870	5.333832e-5
870.625	6.35886e-5
871.25	5.108171e-5
871.875	5.77381e-5
872.5	5.710399e-5
873.125	5.432152e-5
873.75	5.992634e-5
874.375	6.137794e-5
875	5.616654e-5
875.625	5.855008e-5
876.25	6.244462e-5
876.875	5.555518e-5
877.5	6.72419e-5
878.125	6.322715e-5
878.75	5.917689e-5
879.375	6.400629e-5
880	6.416658e-5
880.625	6.153727e-5
881.25	6.989398e-5
881.875	6.725144e-5
882.5	5.976781e-5
883.125	7.405706e-5
883.75	6.345576e-5
884.375	6.94846e-5
885	7.498432e-5
885.625	6.544651e-5
886.25	7.033114e-5
886.875	7.467029e-5
887.5	7.004688e-5
888.125	7.522402e-5
888.75	7.93869e-5
889.375	6.809e-5
890	7.936665e-5
890.625	7.739919e-5
891.25	7.593318e-5
891.875	8.205358e-5
892.5	7.986224e-5
893.125	7.625958e-5
893.75	8.102355e-5
894.375	8.585781e-5
895	7.801942e-5
895.625	9.034867e-5
896.25	8.219248e-5
896.875	8.027934e-5
897.5	9.124606e-5
898.125	8.524998e-5
898.75	8.770525e-5
899.375	9.315967e-5
900	8.552521e-5
900.625	8.627593e-5
901.25	9.764673e-5
901.875	8.718852e-5
902.5	9.647188e-5
903.125	9.533554e-5
903.75	8.739159e-5
904.375	9.685008e-5
905	9.531385e-5
905.625	9.645275e-5
906.25	9.76184e-5
906.875	9.946698e-5
907.5	9.163882e-5
908.125	0.0001007268
908.75	0.0001014947
909.375	9.776257e-5
910	0.0001050875
910.625	9.927611e-5
911.25	9.785437e-5
911.875	0.000104321
912.5	0.000104865
913.125	0.0001003577
913.75	0.0001100044
914.375	9.956004e-5
915	0.0001021285
915.625	0.000110814
916.25	0.0001018613
916.875	0.0001104767
917.5	0.000106807
918.125	0.0001045243
918.75	0.0001070963
919.375	0.0001110578
920	0.0001079336
920.625	0.0001110324
921.25	0.0001107734
921.875	0.0001054935
922.5	0.0001127443
923.125	0.0001117502
923.75	0.0001121272
924.375	0.0001116452
925	0.0001132901
925.625	0.0001075954
926.25	0.000115849
926.875	0.0001160694
927.5	0.0001108232
928.125	0.0001188453
928.75	0.000108728
929.375	0.0001142732
930	0.0001177077
930.625	0.0001153502
931.25	0.0001163677
931.875	0.0001155896
932.5	0.0001128489
933.125	0.0001156429
933.75	0.0001199517
934.375	0.000115486
935	0.0001190596
935.625	0.0001139127
936.25	0.0001155307
936.875	0.000116393
937.5	0.0001200532
938.125	0.0001183863
938.75	0.0001155874
939.375	0.0001185318
940	0.0001118139
940.625	0.0001213459
941.25	0.0001187524
941.875	0.0001172695
942.5	0.0001182986
943.125	0.0001134021
943.75	0.0001161679
944.375	0.0001187836
945	0.0001191229
945.625	0.0001162049
946.25	0.0001170336
946.875	0.0001115591
947.5	0.0001176066
948.125	0.0001171736
948.75	0.0001175238
949.375	0.0001162763
950	0.0001115217
950.625	0.0001152833
951.25	0.0001120065
951.875	0.0001188252
952.5	0.0001141669
953.125	0.0001128223
953.75	0.0001121637
954.375	0.0001097166
955	0.0001145011
955.625	0.0001138989
956.25	0.0001134427
956.875	0.0001095102
957.5	0.0001094282
958.125	0.0001078108
958.75	0.0001127304
959.375	0.0001108397
960	0.0001100867
960.625	0.0001072129
961.25	0.0001040478
961.875	0.0001096069
962.5	0.0001058584
963.125	0.0001114669
963.75	0.0001046486
964.375	0.0001032275
965	0.0001049006
965.625	0.0001028014
966.25	0.0001076962
966.875	0.0001049604
967.5	0.0001027697
968.125	0.000100057
968.75	0.0001019587
969.375	0.0001005307
970	0.0001045162
970.625	0.0001018647
971.25	9.829481e-5
971.875	9.86486e-5
972.5	9.735587e-5
973.125	0.0001011878
973.75	9.878803e-5
974.375	0.0001010462
975	9.295222e-5
975.625	9.572253e-5
976.25	9.716547e-5
976.875	9.378248e-5
977.5	0.0001006088
978.125	9.260006e-5
978.75	9.140577e-5
979.375	9.319351e-5
980	9.275092e-5
980.625	9.296782e-5
981.25	9.579102e-5
981.875	8.900893e-5
982.5	8.763406e-5
983.125	9.159908e-5
983.75	8.750225e-5
984.375	9.230058e-5
985	8.92653e-5
985.625	8.611935e-5
986.25	8.346635e-5
986.875	8.763702e-5
987.5	8.560355e-5
988.125	8.547778e-5
988.75	8.891059e-5
989.375	7.738356e-5
990	8.339487e-5
990.625	8.349238e-5
991.25	8.032702e-5
991.875	8.516891e-5
992.5	8.124844e-5
993.125	7.516738e-5
993.75	7.965495e-5
994.375	8.062823e-5
995	7.675094e-5
995.625	8.351481e-5
996.25	7.511427e-5
996.875	7.315437e-5
997.5	7.698158e-5
998.125	7.597967e-5
998.75	7.631e-5
999.375	7.730292e-5
1000	7.435055e-5
