Source File Name:	Analyzer
Signal:	FFT - Vib Velocity - Magnitude

Frequency	Magnitude
[ Hz ]	[ m/s ]
20	0.001178395
20.625	0.00102171
21.25	0.0009134577
21.875	0.0008261139
22.5	0.0007516377
23.125	0.0006940056
23.75	0.0006302468
24.375	0.000572273
25	0.0005409017
25.625	0.0004989426
26.25	0.0004687555
26.875	0.0004426818
27.5	0.0004182627
28.125	0.0003966161
28.75	0.0003808594
29.375	0.0003715099
30	0.0003709772
30.625	0.0003785737
31.25	0.0003983658
31.875	0.0004279103
32.5	0.0004617437
33.125	0.0004927259
33.75	0.0005231434
34.375	0.0005402996
35	0.0005464311
35.625	0.0005369645
36.25	0.0005179921
36.875	0.0004926438
37.5	0.0004742646
38.125	0.000461887
38.75	0.0004534597
39.375	0.0004445369
40	0.0004379142
40.625	0.0004337845
41.25	0.0004310023
41.875	0.0004240799
42.5	0.0004147366
43.125	0.0004096205
43.75	0.0004023102
44.375	0.0003987404
45	0.0003970249
45.625	0.0003946876
46.25	0.0003949712
46.875	0.0003964851
47.5	0.0003982368
48.125	0.0003960957
48.75	0.0003987654
49.375	0.0003960347
50	0.0003955793
50.625	0.0003901448
51.25	0.0003877927
51.875	0.0003845499
52.5	0.0003805275
53.125	0.0003781695
53.75	0.0003848753
54.375	0.0003843743
55	0.0003846787
55.625	0.0003893157
56.25	0.0003800363
56.875	0.0003720926
57.5	0.0003676453
58.125	0.000360793
58.75	0.0003561967
59.375	0.0003562124
60	0.0003460714
60.625	0.0003487113
61.25	0.0003445263
61.875	0.0003484565
62.5	0.0003465443
63.125	0.0003415173
63.75	0.0003341509
64.375	0.0003225488
65	0.0003146928
65.625	0.0003090866
66.25	0.000309585
66.875	0.0002985943
67.5	0.0002953834
68.125	0.0002950132
68.75	0.0002893648
69.375	0.0002858104
70	0.0002742193
70.625	0.0002651655
71.25	0.0002569199
71.875	0.0002494656
72.5	0.0002393737
73.125	0.000232436
73.75	0.0002247962
74.375	0.0002214128
75	0.0002173863
75.625	0.0002118542
76.25	0.0002059032
76.875	0.0001979243
77.5	0.0001917532
78.125	0.0001790375
78.75	0.0001705341
79.375	0.0001583653
80	0.0001513895
80.625	0.0001437232
81.25	0.0001400979
81.875	0.0001339414
82.5	0.0001312932
83.125	0.0001266271
83.75	0.000115503
84.375	0.0001082599
85	9.537625e-5
85.625	9.008715e-5
86.25	8.37092e-5
86.875	7.58456e-5
87.5	7.042926e-5
88.125	7.148032e-5
88.75	6.848699e-5
89.375	6.724252e-5
90	6.317501e-5
90.625	5.917754e-5
91.25	5.664865e-5
91.875	5.295452e-5
92.5	4.924537e-5
93.125	4.698589e-5
93.75	4.773666e-5
94.375	5.02635e-5
95	5.175299e-5
95.625	5.165476e-5
96.25	5.506586e-5
96.875	5.465448e-5
97.5	5.618251e-5
98.125	5.553157e-5
98.75	5.364044e-5
99.375	5.477209e-5
100	5.936871e-5
100.625	6.166709e-5
101.25	6.494964e-5
101.875	6.659197e-5
102.5	7.066932e-5
103.125	7.47704e-5
103.75	7.228093e-5
104.375	7.235308e-5
105	7.440912e-5
105.625	7.509674e-5
106.25	7.783268e-5
106.875	7.992694e-5
107.5	8.007719e-5
108.125	8.632521e-5
108.75	8.84715e-5
109.375	9.112434e-5
110	9.353892e-5
110.625	9.411375e-5
111.25	9.374337e-5
111.875	9.377868e-5
112.5	9.445844e-5
113.125	9.485237e-5
113.75	9.920236e-5
114.375	0.0001027267
115	0.0001072634
115.625	0.0001104071
116.25	0.0001141093
116.875	0.0001155016
117.5	0.0001171713
118.125	0.0001167648
118.75	0.0001175786
119.375	0.0001184751
120	0.0001178352
120.625	0.0001213986
121.25	0.0001240193
121.875	0.0001253282
122.5	0.0001295642
123.125	0.0001363079
123.75	0.0001389787
124.375	0.0001417474
125	0.0001392143
125.625	0.0001381252
126.25	0.000137873
126.875	0.0001376554
127.5	0.000137262
128.125	0.00013927
128.75	0.0001437193
129.375	0.0001476074
130	0.0001515396
130.625	0.0001530553
131.25	0.000155482
131.875	0.0001548177
132.5	0.0001562902
133.125	0.0001530165
133.75	0.0001526087
134.375	0.0001514454
135	0.0001485223
135.625	0.0001496151
136.25	0.0001532348
136.875	0.0001572228
137.5	0.0001623651
138.125	0.0001672015
138.75	0.0001672493
139.375	0.0001706453
140	0.0001683754
140.625	0.0001676905
141.25	0.0001653783
141.875	0.000167319
142.5	0.0001724473
143.125	0.000178949
143.75	0.0001864019
144.375	0.0001932588
145	0.0002014577
145.625	0.000206748
146.25	0.0002123173
146.875	0.0002140975
147.5	0.0002216005
148.125	0.0002279654
148.75	0.0002401972
149.375	0.0002558272
150	0.0002723747
150.625	0.0002900554
151.25	0.0003132134
151.875	0.0003339065
152.5	0.0003534926
153.125	0.0003752278
153.75	0.0003955858
154.375	0.0004231007
155	0.0004470208
155.625	0.0004752995
156.25	0.0005052975
156.875	0.0005397272
157.5	0.0005787241
158.125	0.0006176818
158.75	0.0006559863
159.375	0.0006968098
160	0.0007390713
160.625	0.0007793342
161.25	0.0008242003
161.875	0.0008682794
162.5	0.0009178371
163.125	0.0009660212
163.75	0.001019928
164.375	0.001071545
165	0.001120359
165.625	0.001167516
166.25	0.001202645
166.875	0.001230971
167.5	0.001243099
168.125	0.001238396
168.75	0.00121489
169.375	0.001177729
170	0.001126675
170.625	0.00106746
171.25	0.001007477
171.875	0.000947118
172.5	0.000891996
173.125	0.0008407118
173.75	0.0007949285
174.375	0.0007506403
175	0.0007135475
175.625	0.0006809118
176.25	0.000648008
176.875	0.0006212314
177.5	0.0005981833
178.125	0.0005774199
178.75	0.0005616113
179.375	0.000548117
180	0.0005368048
180.625	0.0005300476
181.25	0.0005229884
181.875	0.000517841
182.5	0.0005120789
183.125	0.0005058676
183.75	0.0005000782
184.375	0.0004946815
185	0.0004899887
185.625	0.000484498
186.25	0.0004792912
186.875	0.0004771475
187.5	0.0004749788
188.125	0.0004698888
188.75	0.0004653395
189.375	0.0004606841
190	0.0004544387
190.625	0.0004502956
191.25	0.0004440662
191.875	0.0004380925
192.5	0.0004370742
193.125	0.0004372564
193.75	0.0004397356
194.375	0.000440585
195	0.0004420112
195.625	0.0004414055
196.25	0.0004398632
196.875	0.0004339569
197.5	0.0004295045
198.125	0.0004272099
198.75	0.0004248219
199.375	0.0004248534
200	0.0004263207
200.625	0.0004297614
201.25	0.0004305556
201.875	0.0004321941
202.5	0.0004300467
203.125	0.0004295447
203.75	0.0004274944
204.375	0.0004243817
205	0.0004203288
205.625	0.0004200229
206.25	0.0004233239
206.875	0.0004261311
207.5	0.000430534
208.125	0.0004342462
208.75	0.0004425529
209.375	0.0004453439
210	0.0004475607
210.625	0.0004447961
211.25	0.000445526
211.875	0.0004447572
212.5	0.0004456672
213.125	0.0004470419
213.75	0.0004462849
214.375	0.0004539122
215	0.0004591007
215.625	0.0004643573
216.25	0.0004649673
216.875	0.000468432
217.5	0.0004667414
218.125	0.0004685975
218.75	0.0004662355
219.375	0.0004633066
220	0.0004654113
220.625	0.0004663996
221.25	0.0004691871
221.875	0.0004720819
222.5	0.0004753081
223.125	0.0004734609
223.75	0.0004755574
224.375	0.0004699948
225	0.0004655395
225.625	0.0004580235
226.25	0.0004500475
226.875	0.0004399195
227.5	0.0004274997
228.125	0.0004183048
228.75	0.0004036975
229.375	0.0003907817
230	0.000371633
230.625	0.0003519974
231.25	0.0003282658
231.875	0.0003053216
232.5	0.0002790657
233.125	0.0002545988
233.75	0.0002338404
234.375	0.0002116584
235	0.0001965719
235.625	0.0001809102
236.25	0.0001696233
236.875	0.0001584088
237.5	0.0001497125
238.125	0.0001381852
238.75	0.0001331085
239.375	0.0001263234
240	0.0001243957
240.625	0.0001232792
241.25	0.0001261664
241.875	0.0001300823
242.5	0.0001350228
243.125	0.000139637
243.75	0.0001428714
244.375	0.0001460288
245	0.0001500109
245.625	0.0001554711
246.25	0.0001583807
246.875	0.0001653371
247.5	0.000170795
248.125	0.0001787367
248.75	0.0001848782
249.375	0.0001902098
250	0.0001930757
250.625	0.0001969393
251.25	0.0001991878
251.875	0.0002037551
252.5	0.0002062178
253.125	0.0002088502
253.75	0.0002142046
254.375	0.0002193367
255	0.0002251486
255.625	0.00022725
256.25	0.0002290894
256.875	0.0002298144
257.5	0.0002298312
258.125	0.0002289867
258.75	0.000228607
259.375	0.0002258133
260	0.00022691
260.625	0.0002278674
261.25	0.0002252756
261.875	0.0002253105
262.5	0.0002249355
263.125	0.0002216045
263.75	0.0002173852
264.375	0.0002098283
265	0.0002025766
265.625	0.0001952528
266.25	0.0001865532
266.875	0.0001799222
267.5	0.0001743995
268.125	0.0001696689
268.75	0.0001644233
269.375	0.0001589882
270	0.0001499508
270.625	0.000141357
271.25	0.0001306408
271.875	0.0001193496
272.5	0.0001069771
273.125	9.587883e-5
273.75	8.766605e-5
274.375	8.125074e-5
275	7.769561e-5
275.625	7.571687e-5
276.25	7.442746e-5
276.875	7.133757e-5
277.5	6.877234e-5
278.125	6.376416e-5
278.75	6.468443e-5
279.375	6.650271e-5
280	7.460342e-5
280.625	8.190056e-5
281.25	9.295573e-5
281.875	0.0001008903
282.5	0.000110966
283.125	0.0001159736
283.75	0.0001225229
284.375	0.0001257117
285	0.0001282745
285.625	0.0001352202
286.25	0.0001383214
286.875	0.0001462834
287.5	0.0001518183
288.125	0.0001625754
288.75	0.0001714412
289.375	0.0001802022
290	0.0001815204
290.625	0.0001873728
291.25	0.0001909343
291.875	0.0001943352
292.5	0.0001993703
293.125	0.0002016911
293.75	0.0002088693
294.375	0.0002155326
295	0.0002242756
295.625	0.000228742
296.25	0.0002361882
296.875	0.0002390427
297.5	0.0002437107
298.125	0.0002432339
298.75	0.0002467947
299.375	0.0002480841
300	0.0002481846
300.625	0.0002512909
301.25	0.0002520436
301.875	0.0002567617
302.5	0.0002583829
303.125	0.0002615856
303.75	0.0002619587
304.375	0.0002649731
305	0.0002634268
305.625	0.0002633129
306.25	0.0002614144
306.875	0.0002580801
307.5	0.0002575326
308.125	0.0002572977
308.75	0.0002578303
309.375	0.0002567896
310	0.0002581347
310.625	0.0002537491
311.25	0.0002500603
311.875	0.0002451112
312.5	0.0002415192
313.125	0.0002364173
313.75	0.000234193
314.375	0.0002323838
315	0.0002310225
315.625	0.0002309294
316.25	0.0002276046
316.875	0.0002254557
317.5	0.0002213692
318.125	0.0002183118
318.75	0.0002140015
319.375	0.0002122646
320	0.0002104118
320.625	0.0002126427
321.25	0.0002150116
321.875	0.0002183084
322.5	0.0002213908
323.125	0.0002228786
323.75	0.0002220443
324.375	0.0002213565
325	0.0002231836
325.625	0.0002258298
326.25	0.0002306207
326.875	0.0002367484
327.5	0.0002450785
328.125	0.0002512361
328.75	0.0002584179
329.375	0.0002647894
330	0.0002701534
330.625	0.0002748707
331.25	0.0002792748
331.875	0.000283577
332.5	0.0002897656
333.125	0.0002979834
333.75	0.0003075404
334.375	0.0003181223
335	0.0003279306
335.625	0.0003374057
336.25	0.0003453541
336.875	0.0003496358
337.5	0.0003545855
338.125	0.0003595507
338.75	0.0003658307
339.375	0.0003730085
340	0.0003800912
340.625	0.000387274
341.25	0.0003959061
341.875	0.0004059717
342.5	0.0004126834
343.125	0.0004179387
343.75	0.0004206461
344.375	0.0004240688
345	0.0004240679
345.625	0.0004238219
346.25	0.0004240185
346.875	0.0004288501
347.5	0.0004338162
348.125	0.0004391565
348.75	0.0004442485
349.375	0.0004455281
350	0.0004455278
350.625	0.000443224
351.25	0.000440091
351.875	0.0004348897
352.5	0.000433825
353.125	0.0004300743
353.75	0.0004303404
354.375	0.0004303069
355	0.0004306714
355.625	0.0004305383
356.25	0.0004279641
356.875	0.0004247351
357.5	0.0004191761
358.125	0.0004138376
358.75	0.000405184
359.375	0.0004015258
360	0.0003955521
360.625	0.0003935238
361.25	0.0003903948
361.875	0.0003889018
362.5	0.000385981
363.125	0.000382969
363.75	0.0003805411
364.375	0.0003746404
365	0.0003690922
365.625	0.0003624174
366.25	0.0003590714
366.875	0.0003544862
367.5	0.0003559265
368.125	0.0003553245
368.75	0.0003587047
369.375	0.0003583216
370	0.0003587496
370.625	0.0003562553
371.25	0.0003534746
371.875	0.0003518319
372.5	0.0003519294
373.125	0.0003540274
373.75	0.0003553823
374.375	0.0003605175
375	0.0003605966
375.625	0.0003648922
376.25	0.0003649362
376.875	0.0003677029
377.5	0.000366851
378.125	0.000368704
378.75	0.0003704812
379.375	0.0003731811
380	0.0003743431
380.625	0.000376777
381.25	0.0003809186
381.875	0.0003814864
382.5	0.0003845263
383.125	0.0003833831
383.75	0.0003844773
384.375	0.0003835615
385	0.0003855016
385.625	0.0003828389
386.25	0.0003836799
386.875	0.0003827792
387.5	0.000383804
388.125	0.0003829019
388.75	0.0003817278
389.375	0.0003810816
390	0.0003765814
390.625	0.0003731708
391.25	0.0003669524
391.875	0.0003635101
392.5	0.0003578545
393.125	0.0003550719
393.75	0.0003511554
394.375	0.0003497914
395	0.0003444773
395.625	0.0003389378
396.25	0.0003314386
396.875	0.0003215613
397.5	0.0003136129
398.125	0.000304423
398.75	0.0002962075
399.375	0.0002884152
400	0.0002837223
400.625	0.0002782444
401.25	0.0002746341
401.875	0.0002675377
402.5	0.0002603167
403.125	0.0002499415
403.75	0.0002403905
404.375	0.0002324655
405	0.0002247284
405.625	0.0002197969
406.25	0.000218966
406.875	0.0002193843
407.5	0.0002185632
408.125	0.0002168265
408.75	0.0002137068
409.375	0.0002110733
410	0.0002080202
410.625	0.0002051455
411.25	0.0002047519
411.875	0.0002065392
412.5	0.0002111814
413.125	0.0002174537
413.75	0.0002229898
414.375	0.0002275369
415	0.0002319353
415.625	0.0002337092
416.25	0.0002326293
416.875	0.0002352638
417.5	0.0002373824
418.125	0.0002411542
418.75	0.0002459249
419.375	0.00025222
420	0.0002567223
420.625	0.0002636201
421.25	0.0002670927
421.875	0.0002690036
422.5	0.0002701763
423.125	0.0002702994
423.75	0.0002698717
424.375	0.0002685173
425	0.0002683122
425.625	0.0002680465
426.25	0.0002728869
426.875	0.0002737969
427.5	0.0002772146
428.125	0.000276437
428.75	0.0002751664
429.375	0.0002705872
430	0.0002673102
430.625	0.0002602073
431.25	0.0002543041
431.875	0.0002519156
432.5	0.0002486039
433.125	0.0002481887
433.75	0.0002451835
434.375	0.0002447787
435	0.0002389733
435.625	0.0002345148
436.25	0.000224846
436.875	0.0002177143
437.5	0.000208961
438.125	0.0002043955
438.75	0.0001989389
439.375	0.0001947546
440	0.0001920569
440.625	0.0001889154
441.25	0.0001856067
441.875	0.0001765279
442.5	0.0001713325
443.125	0.000163655
443.75	0.0001599435
444.375	0.0001527889
445	0.0001519475
445.625	0.0001485607
446.25	0.000149929
446.875	0.0001483031
447.5	0.0001466244
448.125	0.0001434323
448.75	0.0001413141
449.375	0.0001414124
450	0.0001393162
450.625	0.000142134
451.25	0.0001429228
451.875	0.0001460655
452.5	0.0001453913
453.125	0.0001489014
453.75	0.0001492007
454.375	0.0001521433
455	0.0001516954
455.625	0.0001539163
456.25	0.0001540264
456.875	0.0001542481
457.5	0.0001551606
458.125	0.0001558813
458.75	0.0001578828
459.375	0.0001589547
460	0.0001621524
460.625	0.0001595408
461.25	0.0001589781
461.875	0.000154532
462.5	0.0001523574
463.125	0.0001487845
463.75	0.0001477424
464.375	0.0001461933
465	0.0001444989
465.625	0.0001435431
466.25	0.0001412861
466.875	0.0001385993
467.5	0.0001315762
468.125	0.0001262021
468.75	0.0001183358
469.375	0.0001114799
470	0.0001036999
470.625	9.857732e-5
471.25	9.352675e-5
471.875	8.932306e-5
472.5	8.440291e-5
473.125	7.838097e-5
473.75	7.164571e-5
474.375	6.3871e-5
475	5.696528e-5
475.625	4.570135e-5
476.25	3.581783e-5
476.875	2.847032e-5
477.5	2.07319e-5
478.125	1.630133e-5
478.75	1.4803e-5
479.375	1.740957e-5
480	2.31646e-5
480.625	3.119914e-5
481.25	4.09304e-5
481.875	5.169028e-5
482.5	6.334593e-5
483.125	7.247877e-5
483.75	7.986472e-5
484.375	8.775309e-5
485	9.254694e-5
485.625	9.671037e-5
486.25	0.0001015643
486.875	0.0001073229
487.5	0.0001144183
488.125	0.0001232746
488.75	0.000132971
489.375	0.0001423336
490	0.0001499556
490.625	0.0001567363
491.25	0.0001633915
491.875	0.0001654245
492.5	0.0001684962
493.125	0.000169169
493.75	0.0001710963
494.375	0.0001743456
495	0.0001781167
495.625	0.0001840533
496.25	0.0001898317
496.875	0.0001924664
497.5	0.0001959856
498.125	0.000199442
498.75	0.0001970891
499.375	0.0001982244
500	0.0001952821
500.625	0.000193073
501.25	0.000192007
501.875	0.0001913597
502.5	0.0001903548
503.125	0.0001909789
503.75	0.0001912048
504.375	0.0001912125
505	0.0001902206
505.625	0.0001844404
506.25	0.0001826969
506.875	0.0001760116
507.5	0.0001716295
508.125	0.0001654359
508.75	0.0001618756
509.375	0.0001585344
510	0.0001555492
510.625	0.0001525256
511.25	0.0001501752
511.875	0.000146732
512.5	0.000141681
513.125	0.0001381542
513.75	0.000126877
514.375	0.0001222287
515	0.0001160787
515.625	0.0001137385
516.25	0.0001104449
516.875	0.0001104639
517.5	0.0001074373
518.125	0.0001059043
518.75	0.0001002115
519.375	9.498151e-5
520	9.141854e-5
520.625	8.734882e-5
521.25	8.981866e-5
521.875	8.874817e-5
522.5	9.136581e-5
523.125	9.180034e-5
523.75	9.370823e-5
524.375	9.148045e-5
525	9.210641e-5
525.625	8.910595e-5
526.25	9.158759e-5
526.875	9.094255e-5
527.5	9.433269e-5
528.125	9.890935e-5
528.75	0.0001003878
529.375	0.0001032462
530	0.0001041463
530.625	0.0001024002
531.25	0.0001001254
531.875	0.0001014925
532.5	9.765616e-5
533.125	0.0001003894
533.75	9.895809e-5
534.375	0.0001010363
535	0.0001013622
535.625	0.0001013753
536.25	0.0001008122
536.875	9.939228e-5
537.5	9.586218e-5
538.125	9.238009e-5
538.75	8.863124e-5
539.375	8.151036e-5
540	7.970951e-5
540.625	7.658316e-5
541.25	7.714319e-5
541.875	7.514494e-5
542.5	7.412444e-5
543.125	7.166063e-5
543.75	6.695536e-5
544.375	5.997729e-5
545	5.466958e-5
545.625	4.685119e-5
546.25	4.284607e-5
546.875	4.18401e-5
547.5	4.042085e-5
548.125	4.252368e-5
548.75	4.385058e-5
549.375	4.429363e-5
550	4.258048e-5
550.625	4.060065e-5
551.25	3.826215e-5
551.875	3.959766e-5
552.5	4.338972e-5
553.125	5.160584e-5
553.75	5.925057e-5
554.375	6.654141e-5
555	7.352312e-5
555.625	7.791966e-5
556.25	7.93118e-5
556.875	8.119291e-5
557.5	8.260055e-5
558.125	8.481442e-5
558.75	8.96575e-5
559.375	9.664982e-5
560	0.0001042363
560.625	0.0001123743
561.25	0.0001183813
561.875	0.0001233373
562.5	0.0001244513
563.125	0.0001250908
563.75	0.0001260557
564.375	0.0001257273
565	0.000126418
565.625	0.0001287293
566.25	0.0001326472
566.875	0.0001361904
567.5	0.0001404588
568.125	0.0001428997
568.75	0.0001452192
569.375	0.0001436578
570	0.0001443197
570.625	0.0001406543
571.25	0.0001364003
571.875	0.0001345349
572.5	0.0001330794
573.125	0.0001326112
573.75	0.0001328301
574.375	0.0001336288
575	0.0001323277
575.625	0.0001317053
576.25	0.0001250965
576.875	0.0001234809
577.5	0.0001165696
578.125	0.0001120417
578.75	0.0001074956
579.375	0.0001018626
580	9.777547e-5
580.625	9.407043e-5
581.25	9.127209e-5
581.875	8.660209e-5
582.5	8.309089e-5
583.125	7.651459e-5
583.75	7.411436e-5
584.375	6.403188e-5
585	5.875521e-5
585.625	5.195001e-5
586.25	4.518802e-5
586.875	4.092824e-5
587.5	3.621281e-5
588.125	3.103897e-5
588.75	2.528041e-5
589.375	2.081079e-5
590	1.334137e-5
590.625	1.022168e-5
591.25	3.092862e-6
591.875	2.588244e-6
592.5	9.525433e-6
593.125	1.527047e-5
593.75	1.871921e-5
594.375	2.309465e-5
595	2.641773e-5
595.625	3.128781e-5
596.25	3.356294e-5
596.875	3.805078e-5
597.5	4.144248e-5
598.125	4.923761e-5
598.75	5.133124e-5
599.375	5.762386e-5
600	5.932886e-5
600.625	6.003601e-5
601.25	6.178963e-5
601.875	6.138952e-5
602.5	6.159688e-5
603.125	6.193767e-5
603.75	6.49275e-5
604.375	6.751533e-5
605	7.262909e-5
605.625	7.283125e-5
606.25	7.679414e-5
606.875	7.376568e-5
607.5	7.074407e-5
608.125	6.761555e-5
608.75	6.36651e-5
609.375	6.128869e-5
610	6.137118e-5
610.625	6.291281e-5
611.25	6.249442e-5
611.875	6.359164e-5
612.5	6.163973e-5
613.125	6.125495e-5
613.75	5.560279e-5
614.375	5.235704e-5
615	4.780168e-5
615.625	4.412853e-5
616.25	4.208562e-5
616.875	4.281401e-5
617.5	4.306205e-5
618.125	4.676206e-5
618.75	4.981728e-5
619.375	5.038943e-5
620	5.021618e-5
620.625	4.839131e-5
621.25	5.10991e-5
621.875	5.239708e-5
622.5	5.70992e-5
623.125	6.3605e-5
623.75	6.969659e-5
624.375	7.580121e-5
625	8.457727e-5
625.625	8.846535e-5
626.25	9.37052e-5
626.875	9.833065e-5
627.5	9.947339e-5
628.125	0.000103019
628.75	0.0001059337
629.375	0.0001119635
630	0.0001204375
630.625	0.0001278138
631.25	0.0001363347
631.875	0.0001453845
632.5	0.000148997
633.125	0.0001518551
633.75	0.0001544961
634.375	0.0001550692
635	0.0001585649
635.625	0.0001619834
636.25	0.0001669746
636.875	0.0001717051
637.5	0.0001762557
638.125	0.0001833194
638.75	0.0001870962
639.375	0.0001897382
640	0.0001919223
640.625	0.0001926677
641.25	0.0001911677
641.875	0.0001917919
642.5	0.0001905476
643.125	0.0001917243
643.75	0.0001934184
644.375	0.0001955341
645	0.0001997036
645.625	0.0001992936
646.25	0.0002003535
646.875	0.0001984687
647.5	0.0001964251
648.125	0.0001913578
648.75	0.0001890777
649.375	0.000185214
650	0.0001827967
650.625	0.0001808731
651.25	0.0001802948
651.875	0.0001808351
652.5	0.000177428
653.125	0.0001767162
653.75	0.000169944
654.375	0.0001645979
655	0.0001574206
655.625	0.0001534628
656.25	0.0001473746
656.875	0.000144162
657.5	0.0001412238
658.125	0.00013748
658.75	0.0001332451
659.375	0.0001276781
660	0.0001244213
660.625	0.0001160564
661.25	0.0001110358
661.875	0.0001025779
662.5	9.896097e-5
663.125	9.193325e-5
663.75	8.819687e-5
664.375	8.418674e-5
665	8.082465e-5
665.625	7.662429e-5
666.25	7.219854e-5
666.875	6.657215e-5
667.5	5.773264e-5
668.125	5.519918e-5
668.75	5.022013e-5
669.375	5.047895e-5
670	4.833036e-5
670.625	5.090699e-5
671.25	4.830464e-5
671.875	5.090296e-5
672.5	4.922114e-5
673.125	5.0185e-5
673.75	4.809124e-5
674.375	5.064212e-5
675	5.34156e-5
675.625	5.752999e-5
676.25	6.142446e-5
676.875	6.75295e-5
677.5	7.176714e-5
678.125	7.340469e-5
678.75	7.835051e-5
679.375	7.587406e-5
680	7.840478e-5
680.625	7.826306e-5
681.25	8.205454e-5
681.875	8.342942e-5
682.5	8.839669e-5
683.125	9.088997e-5
683.75	9.661465e-5
684.375	9.866667e-5
685	0.0001008827
685.625	0.0001036996
686.25	0.0001000489
686.875	9.905774e-5
687.5	9.538055e-5
688.125	9.515843e-5
688.75	9.486463e-5
689.375	0.0001001671
690	0.0001027524
690.625	0.0001066648
691.25	0.0001079377
691.875	0.0001082729
692.5	0.0001042827
693.125	9.809505e-5
693.75	9.565433e-5
694.375	9.164874e-5
695	9.131794e-5
695.625	9.152127e-5
696.25	9.377198e-5
696.875	9.49992e-5
697.5	9.679588e-5
698.125	9.612139e-5
698.75	9.498049e-5
699.375	9.09843e-5
700	8.754107e-5
700.625	8.611187e-5
701.25	8.357894e-5
701.875	8.389804e-5
702.5	8.660098e-5
703.125	8.873979e-5
703.75	9.074241e-5
704.375	9.350669e-5
705	9.511107e-5
705.625	9.582285e-5
706.25	9.659644e-5
706.875	9.757028e-5
707.5	9.750018e-5
708.125	9.711776e-5
708.75	0.0001007814
709.375	0.0001042507
710	0.0001087014
710.625	0.0001157293
711.25	0.0001210482
711.875	0.000124971
712.5	0.0001275466
713.125	0.0001282347
713.75	0.0001281307
714.375	0.000130483
715	0.0001330283
715.625	0.000139845
716.25	0.0001430894
716.875	0.0001487049
717.5	0.0001550793
718.125	0.0001587931
718.75	0.0001610552
719.375	0.0001626569
720	0.0001656172
720.625	0.0001653154
721.25	0.0001685408
721.875	0.000170466
722.5	0.0001750339
723.125	0.0001767064
723.75	0.0001824213
724.375	0.0001845771
725	0.0001863358
725.625	0.0001886302
726.25	0.0001882062
726.875	0.0001895402
727.5	0.0001874525
728.125	0.0001895475
728.75	0.0001893013
729.375	0.0001911463
730	0.000191105
730.625	0.0001951419
731.25	0.0001944236
731.875	0.0001952049
732.5	0.0001941495
733.125	0.0001909566
733.75	0.0001890653
734.375	0.0001848658
735	0.0001861943
735.625	0.0001827591
736.25	0.0001838652
736.875	0.0001835739
737.5	0.0001840878
738.125	0.0001794883
738.75	0.0001777909
739.375	0.0001730493
740	0.0001691364
740.625	0.0001650802
741.25	0.00015918
741.875	0.0001592998
742.5	0.0001532786
743.125	0.0001529872
743.75	0.0001507466
744.375	0.0001489742
745	0.000145038
745.625	0.0001436474
746.25	0.0001353308
746.875	0.0001288828
747.5	0.0001227725
748.125	0.0001168547
748.75	0.0001152707
749.375	0.0001101397
750	0.0001118686
750.625	0.0001088454
751.25	0.0001068052
751.875	0.0001022602
752.5	9.943143e-5
753.125	9.189376e-5
753.75	8.875291e-5
754.375	8.379518e-5
755	8.09268e-5
755.625	8.033159e-5
756.25	7.926874e-5
756.875	8.274757e-5
757.5	8.182084e-5
758.125	8.331452e-5
758.75	8.331118e-5
759.375	8.174249e-5
760	7.781468e-5
760.625	7.951709e-5
761.25	7.659888e-5
761.875	7.878429e-5
762.5	8.203079e-5
763.125	8.552877e-5
763.75	9.002733e-5
764.375	9.388612e-5
765	9.822753e-5
765.625	9.97875e-5
766.25	9.822156e-5
766.875	9.591776e-5
767.5	9.661747e-5
768.125	9.422382e-5
768.75	9.82677e-5
769.375	0.0001017485
770	0.000107122
770.625	0.0001132131
771.25	0.0001161537
771.875	0.000117388
772.5	0.0001147784
773.125	0.0001122856
773.75	0.0001116869
774.375	0.0001103732
775	0.0001076148
775.625	0.00011157
776.25	0.000111738
776.875	0.0001129135
777.5	0.0001159627
778.125	0.0001151107
778.75	0.0001155061
779.375	0.0001128403
780	0.0001101168
780.625	0.0001072338
781.25	0.0001022033
781.875	9.880632e-5
782.5	9.793069e-5
783.125	9.463322e-5
783.75	9.394726e-5
784.375	9.471597e-5
785	9.183207e-5
785.625	9.075835e-5
786.25	8.57078e-5
786.875	8.23145e-5
787.5	7.685505e-5
788.125	6.947409e-5
788.75	6.64376e-5
789.375	6.215659e-5
790	5.85179e-5
790.625	5.790746e-5
791.25	5.676507e-5
791.875	5.100651e-5
792.5	4.889418e-5
793.125	4.168105e-5
793.75	3.773371e-5
794.375	3.320817e-5
795	3.103804e-5
795.625	3.060648e-5
796.25	3.073875e-5
796.875	3.134376e-5
797.5	3.461092e-5
798.125	3.450546e-5
798.75	3.655989e-5
799.375	4.094601e-5
800	4.067309e-5
800.625	4.575398e-5
801.25	5.023148e-5
801.875	5.703695e-5
802.5	6.212869e-5
803.125	7.060073e-5
803.75	7.331245e-5
804.375	7.912394e-5
805	7.962845e-5
805.625	8.422658e-5
806.25	8.771686e-5
806.875	9.17623e-5
807.5	0.0001000704
808.125	0.0001047355
808.75	0.0001102156
809.375	0.0001140723
810	0.0001208392
810.625	0.0001224789
811.25	0.0001273537
811.875	0.0001270596
812.5	0.0001314138
813.125	0.0001307002
813.75	0.0001335562
814.375	0.0001394295
815	0.0001415407
815.625	0.0001481911
816.25	0.0001530877
816.875	0.000156632
817.5	0.0001562129
818.125	0.0001579874
818.75	0.0001541194
819.375	0.0001555881
820	0.0001525874
820.625	0.0001551884
821.25	0.0001586779
821.875	0.0001585051
822.5	0.0001626505
823.125	0.0001638229
823.75	0.0001659051
824.375	0.00016486
825	0.0001654693
825.625	0.0001605857
826.25	0.0001586979
826.875	0.0001528607
827.5	0.0001536243
828.125	0.0001518123
828.75	0.0001504861
829.375	0.000155182
830	0.0001540325
830.625	0.0001547958
831.25	0.0001525449
831.875	0.0001506563
832.5	0.0001447305
833.125	0.0001420205
833.75	0.0001361257
834.375	0.0001340587
835	0.0001300088
835.625	0.0001285148
836.25	0.0001292631
836.875	0.0001270031
837.5	0.0001284117
838.125	0.000126898
838.75	0.0001255514
839.375	0.0001200788
840	0.0001155194
840.625	0.0001109761
841.25	0.0001068149
841.875	0.0001018466
842.5	0.0001012613
843.125	0.0001008088
843.75	9.90776e-5
844.375	0.0001024515
845	0.0001022502
845.625	0.0001004764
846.25	9.736902e-5
846.875	9.36065e-5
847.5	8.858179e-5
848.125	8.410523e-5
848.75	8.204577e-5
849.375	8.303076e-5
850	8.441732e-5
850.625	8.614089e-5
851.25	8.883029e-5
851.875	8.781912e-5
852.5	8.655358e-5
853.125	8.457986e-5
853.75	8.29733e-5
854.375	8.158244e-5
855	8.129415e-5
855.625	8.263896e-5
856.25	8.226217e-5
856.875	8.234101e-5
857.5	8.539503e-5
858.125	8.821447e-5
858.75	8.828845e-5
859.375	9.028293e-5
860	9.036228e-5
860.625	8.933884e-5
861.25	8.82028e-5
861.875	8.672274e-5
862.5	8.845596e-5
863.125	8.823036e-5
863.75	9.253094e-5
864.375	9.578661e-5
865	9.725001e-5
865.625	9.730704e-5
866.25	9.790992e-5
866.875	9.624696e-5
867.5	9.496025e-5
868.125	9.512773e-5
868.75	9.585953e-5
869.375	9.830001e-5
870	9.671945e-5
870.625	0.0001018612
871.25	0.0001010319
871.875	0.000101262
872.5	0.0001007833
873.125	9.945127e-5
873.75	9.802607e-5
874.375	9.755568e-5
875	9.708581e-5
875.625	9.665716e-5
876.25	9.690896e-5
876.875	9.401139e-5
877.5	9.841836e-5
878.125	9.473614e-5
878.75	9.568039e-5
879.375	9.568665e-5
880	9.331431e-5
880.625	9.086515e-5
881.25	8.647985e-5
881.875	8.403895e-5
882.5	7.993569e-5
883.125	7.877297e-5
883.75	7.717604e-5
884.375	8.054569e-5
885	7.632321e-5
885.625	7.812696e-5
886.25	7.406111e-5
886.875	6.830519e-5
887.5	6.46493e-5
888.125	5.822964e-5
888.75	5.527399e-5
889.375	4.957517e-5
890	4.677807e-5
890.625	4.39424e-5
891.25	4.332808e-5
891.875	3.772815e-5
892.5	3.994765e-5
893.125	3.50419e-5
893.75	3.098885e-5
894.375	2.598099e-5
895	1.806369e-5
895.625	1.105007e-5
896.25	7.396791e-6
896.875	9.040157e-6
897.5	1.486323e-5
898.125	1.773665e-5
898.75	1.895767e-5
899.375	2.031971e-5
900	2.0398e-5
900.625	2.483331e-5
901.25	2.897615e-5
901.875	3.5756e-5
902.5	4.224878e-5
903.125	5.181727e-5
903.75	5.539906e-5
904.375	6.348033e-5
905	6.665374e-5
905.625	6.93508e-5
906.25	7.055093e-5
906.875	7.29544e-5
907.5	7.565561e-5
908.125	7.950758e-5
908.75	8.517039e-5
909.375	9.269372e-5
910	9.929249e-5
910.625	0.0001027834
911.25	0.0001109868
911.875	0.0001116817
912.5	0.00011385
913.125	0.0001154257
913.75	0.0001170541
914.375	0.00011841
915	0.0001201229
915.625	0.0001230736
916.25	0.0001269609
916.875	0.0001305976
917.5	0.000134131
918.125	0.0001392006
918.75	0.00013804
919.375	0.000140553
920	0.0001401691
920.625	0.0001386961
921.25	0.0001381899
921.875	0.0001365137
922.5	0.0001386911
923.125	0.0001389829
923.75	0.00013985
924.375	0.00014278
925	0.0001441646
925.625	0.0001418994
926.25	0.0001432864
926.875	0.0001396247
927.5	0.0001354566
928.125	0.0001350707
928.75	0.0001323788
929.375	0.0001333887
930	0.0001330788
930.625	0.0001340851
931.25	0.0001352506
931.875	0.0001327531
932.5	0.0001298016
933.125	0.0001302541
933.75	0.000127311
934.375	0.0001262757
935	0.0001276416
935.625	0.0001253312
936.25	0.0001269829
936.875	0.0001277799
937.5	0.0001299848
938.125	0.0001307856
938.75	0.0001306318
939.375	0.0001321423
940	0.0001329725
940.625	0.0001309743
941.25	0.0001341822
941.875	0.0001368815
942.5	0.0001379294
943.125	0.000144361
943.75	0.0001460629
944.375	0.0001499432
945	0.0001515026
945.625	0.0001538332
946.25	0.0001549538
946.875	0.0001568646
947.5	0.0001569749
948.125	0.000162799
948.75	0.0001650533
949.375	0.0001686559
950	0.000177082
950.625	0.0001782354
951.25	0.0001823273
951.875	0.0001808141
952.5	0.0001812118
953.125	0.0001790255
953.75	0.000180734
954.375	0.0001824601
955	0.0001880869
955.625	0.0001892198
956.25	0.00019407
956.875	0.0001971222
957.5	0.0001931047
958.125	0.0001945886
958.75	0.0001906593
959.375	0.0001909533
960	0.0001880576
960.625	0.0001876452
961.25	0.000185871
961.875	0.0001860901
962.5	0.0001831843
963.125	0.000185995
963.75	0.0001849995
964.375	0.0001817415
965	0.0001830932
965.625	0.0001758571
966.25	0.0001715428
966.875	0.0001644151
967.5	0.0001607584
968.125	0.0001544761
968.75	0.0001519633
969.375	0.0001483384
970	0.0001493881
970.625	0.0001446138
971.25	0.0001418782
971.875	0.0001386491
972.5	0.0001279251
973.125	0.0001225015
973.75	0.0001120711
974.375	0.0001055105
975	9.750999e-5
975.625	9.481712e-5
976.25	9.089773e-5
976.875	9.007815e-5
977.5	8.288641e-5
978.125	8.022188e-5
978.75	7.334419e-5
979.375	6.320122e-5
980	5.851434e-5
980.625	4.956132e-5
981.25	4.355946e-5
981.875	3.919581e-5
982.5	3.840533e-5
983.125	3.619897e-5
983.75	3.924e-5
984.375	3.678473e-5
985	3.790664e-5
985.625	3.350201e-5
986.25	3.362646e-5
986.875	3.529497e-5
987.5	4.004659e-5
988.125	4.555201e-5
988.75	5.470404e-5
989.375	5.692197e-5
990	6.191709e-5
990.625	6.647574e-5
991.25	6.650455e-5
991.875	6.98476e-5
992.5	7.199764e-5
993.125	7.545853e-5
993.75	7.778652e-5
994.375	8.279599e-5
995	8.707581e-5
995.625	9.217664e-5
996.25	9.484408e-5
996.875	9.952235e-5
997.5	9.949222e-5
998.125	9.742605e-5
998.75	9.972649e-5
999.375	9.988328e-5
1000	0.0001018622
