Source File Name:	14,3
Signal:	FFT - Vib Velocity - Mag. & Phase

Frequency	Magnitude	Phase
[ Hz ]	[ m/s ]	[ ° ]
10	14.75654	23.04166
10.5	15.18569	4.407756
11	15.37208	-13.52479
11.5	16.3093	-34.21349
12	16.49147	-58.5854
12.5	18.42575	-70.17745
13	18.04987	-96.16692
13.5	19.94839	-113.2401
14	17.95492	-137.0816
14.5	18.80659	-157.1311
15	20.01493	176.3944
15.5	20.65893	157.1411
16	21.77551	136.3409
16.5	23.87778	110.9726
17	25.9484	84.93274
17.5	28.29018	57.23228
18	30.03881	28.06577
18.5	31.77402	-10.79873
19	31.51087	-37.13924
19.5	30.72556	-73.80756
20	29.79087	-107.9182
20.5	26.57573	-142.6165
21	21.09398	-172.1139
21.5	17.66762	160.8967
22	14.24951	151.7359
22.5	13.5492	115.2795
23	10.61103	92.26028
23.5	11.48784	74.21409
24	11.10235	54.20131
24.5	10.43167	33.85576
25	10.79088	14.76999
25.5	10.67748	-1.477206
26	10.68162	-20.39145
26.5	10.29759	-39.72882
27	10.21681	-57.09855
27.5	10.2391	-76.23361
28	9.834776	-94.94873
28.5	9.709151	-113.2909
29	9.477856	-130.5187
29.5	9.426683	-148.7532
30	9.167023	-166.5948
30.5	8.858459	176.811
31	8.744586	160.6919
31.5	8.448801	140.8714
32	8.198756	123.6703
32.5	8.145179	108.617
33	7.975962	91.24346
33.5	7.845725	75.55348
34	7.68317	60.11366
34.5	7.620832	44.77847
35	7.598578	28.64959
35.5	7.45743	13.95828
36	7.421492	-0.3597884
36.5	7.55312	-14.75702
37	7.574665	-29.6757
37.5	7.744145	-45.75345
38	7.903077	-59.99674
38.5	8.25642	-75.05563
39	8.552938	-91.81696
39.5	8.854627	-108.6644
40	9.050597	-126.8372
40.5	8.956786	-143.8536
41	8.875224	-161.6031
41.5	8.86796	-179.0045
42	8.67543	164.0715
42.5	8.525846	148.0042
43	8.573844	132.4882
43.5	8.501928	116.278
44	8.559226	99.58074
44.5	8.487386	83.06364
45	8.339396	66.24268
45.5	8.419112	50.7893
46	8.261238	34.31359
46.5	8.173382	17.74904
47	8.073857	2.321663
47.5	8.088931	-13.71203
48	8.025924	-30.19476
48.5	8.036527	-45.69177
49	7.923539	-62.52376
49.5	7.831903	-77.84246
50	7.878965	-91.7317
50.5	7.854287	-108.3624
51	7.738882	-124.9718
51.5	7.519957	-140.9543
52	7.627633	-155.535
52.5	7.596389	-172.6913
53	7.399927	171.8037
53.5	7.38935	156.8652
54	7.44401	142.0271
54.5	7.298106	125.5133
55	7.270191	108.7771
55.5	7.226391	92.27151
56	7.075424	75.95233
56.5	6.999202	61.51391
57	7.142042	45.66741
57.5	6.960839	29.38529
58	6.882189	13.95969
58.5	6.816794	-1.383622
59	6.884853	-17.24928
59.5	6.787986	-33.47488
60	6.693875	-48.86733
60.5	6.586833	-65.14114
61	6.484934	-79.41175
61.5	6.569944	-95.53836
62	6.461878	-111.384
62.5	6.39461	-128.0768
63	6.120048	-143.8663
63.5	6.108614	-157.22
64	6.087694	-174.1055
64.5	6.030961	170.5485
65	5.941547	154.0218
65.5	5.708808	138.5789
66	5.711018	123.3853
66.5	5.516785	107.9265
67	5.53915	93.05141
67.5	5.375214	76.54607
68	5.306184	61.65937
68.5	5.231972	46.55065
69	5.097409	31.44817
69.5	5.123256	15.93501
70	4.967375	0.3388044
70.5	4.889637	-14.24873
71	4.731876	-30.8417
71.5	4.607467	-43.84848
72	4.57831	-58.40104
72.5	4.581367	-72.87646
73	4.453019	-89.82127
73.5	4.29873	-103.1655
74	4.279716	-118.7315
74.5	4.096632	-133.6531
75	3.869525	-150.8157
75.5	3.721977	-161.5699
76	3.637332	-174.9044
76.5	3.627321	172.2444
77	3.610652	158.6902
77.5	3.537565	142.2417
78	3.28354	128.3476
78.5	3.272816	118.2644
79	3.174887	103.8353
79.5	3.075204	93.62305
80	3.12606	83.66181
80.5	3.289428	71.05371
81	3.332697	57.76223
81.5	3.469664	43.89654
82	3.428191	29.39515
82.5	3.372502	19.41411
83	3.622208	8.191168
83.5	3.844548	-4.782751
84	3.938878	-18.1788
84.5	4.21156	-31.05173
85	4.464118	-44.87964
85.5	4.730001	-59.57479
86	4.964728	-74.63944
86.5	5.169189	-88.40436
87	5.483294	-102.3547
87.5	5.889219	-117.4809
88	6.285772	-133.2595
88.5	6.674166	-149.575
89	6.952596	-166.57
89.5	7.369336	177.5338
90	7.751354	160.8162
90.5	8.10176	143.2977
91	8.384412	126.539
91.5	8.871823	109.6373
92	9.21088	91.09771
92.5	9.589302	73.0359
93	9.841207	54.2764
93.5	9.992894	36.36441
94	10.24839	17.61036
94.5	10.46413	-1.414141
95	10.41475	-21.75649
95.5	10.086	-41.60795
96	9.726853	-60.31247
96.5	9.186678	-79.24638
97	8.539858	-97.14744
97.5	7.821533	-113.6075
98	7.137885	-129.0441
98.5	6.519565	-142.4333
99	5.977068	-155.3447
99.5	5.564585	-164.9113
100	5.407912	-174.1416
100.5	5.382097	177.3866
101	5.676594	168.3831
101.5	6.053995	157.8276
102	6.494124	145.5391
102.5	7.100745	133.7834
103	7.704075	120.0789
103.5	8.610894	106.2296
104	9.434352	90.97657
104.5	10.45733	75.13642
105	11.49644	58.39677
105.5	12.6585	41.13836
106	13.7967	22.82187
106.5	15.03833	4.374887
107	16.25737	-15.04818
107.5	17.4437	-35.01727
108	18.37527	-55.31551
108.5	19.33615	-76.141
109	19.92866	-97.19508
109.5	20.34493	-118.2399
110	20.5372	-139.5974
110.5	20.28621	-160.584
111	19.94756	179.1885
111.5	19.61342	158.7705
112	18.8812	138.5797
112.5	18.1238	119.4344
113	17.4461	100.8485
113.5	16.8235	82.25116
114	16.21789	64.21843
114.5	15.59714	46.14285
115	14.97188	28.21676
115.5	14.42902	11.35217
116	14.04436	-6.099263
116.5	13.53294	-23.74312
117	13.06273	-40.33722
117.5	12.70784	-57.46436
118	12.2802	-74.23487
118.5	12.01239	-90.85401
119	11.77567	-107.9351
119.5	11.40915	-125.1828
120	11.08086	-141.9131
120.5	10.85002	-158.6818
121	10.53274	-175.8957
121.5	10.20811	167.1528
122	9.922461	150.927
122.5	9.674646	134.5499
123	9.673867	118.0232
123.5	9.507225	100.0747
124	9.192101	82.70198
124.5	8.941257	65.98583
125	8.720402	49.6737
125.5	8.62289	32.61489
126	8.44136	14.92448
126.5	8.214246	-1.37079
127	8.189589	-18.45214
127.5	8.078968	-36.39515
128	7.936374	-54.33556
128.5	7.667335	-72.04295
129	7.421143	-89.57082
129.5	7.316159	-105.8073
130	7.223545	-123.8503
130.5	7.08878	-141.9235
131	6.893988	-159.5687
131.5	6.889812	-176.9822
132	6.730844	163.2857
132.5	6.521836	145.6786
133	6.492424	127.7079
133.5	6.32289	108.0205
134	6.100249	89.97927
134.5	6.080384	73.02174
135	6.113185	53.30213
135.5	6.054163	33.78737
136	5.958028	14.26897
136.5	5.818125	-4.902256
137	5.83393	-23.0701
137.5	5.811661	-43.13595
138	5.909837	-61.94949
138.5	5.866209	-83.34003
139	5.877705	-101.2598
139.5	6.052381	-121.925
140	6.090586	-142.305
140.5	6.210232	-162.8103
141	6.174456	176.5045
141.5	6.286874	157.7867
142	6.588457	137.8694
142.5	6.68338	117.1327
143	7.029872	97.65859
143.5	7.196934	76.84162
144	7.526217	57.37659
144.5	7.853008	36.3424
145	8.127149	16.96362
145.5	8.601759	-3.846461
146	8.810132	-24.5668
146.5	9.172901	-44.1283
147	9.535737	-64.32421
147.5	9.921716	-84.38849
148	10.33711	-104.6349
148.5	10.6749	-124.7757
149	11.03847	-144.6702
149.5	11.46709	-164.9176
150	11.78461	174.9897
150.5	12.24876	154.5216
151	12.43582	133.8474
151.5	12.64115	114.0914
152	12.88934	94.15563
152.5	13.11477	74.4028
153	13.33322	54.30888
153.5	13.48034	34.5422
154	13.64236	14.73372
154.5	13.69121	-5.458465
155	13.76954	-24.51702
155.5	13.85607	-45.08257
156	13.59925	-64.83743
156.5	13.46133	-83.76102
157	13.41968	-103.1834
157.5	13.14456	-122.4968
158	12.98073	-141.1514
158.5	12.82099	-160.2768
159	12.5686	-179.2741
159.5	12.229	161.6326
160	11.97604	143.7212
160.5	11.68814	124.4888
161	11.30845	106.6473
161.5	11.05881	88.43294
162	10.71282	69.99636
162.5	10.33684	52.37767
163	10.04242	34.17297
163.5	9.591446	16.43574
164	9.266157	-0.4512238
164.5	8.860148	-18.09246
165	8.507643	-34.11707
165.5	8.236221	-50.87518
166	7.962791	-66.85013
166.5	7.759259	-83.95423
167	7.441019	-100.0488
167.5	7.226886	-115.9614
168	6.989761	-132.1814
168.5	6.804829	-147.5821
169	6.684281	-163.775
169.5	6.406828	-179.9061
170	6.279455	165.1981
170.5	6.223157	149.5382
171	6.107422	132.8986
171.5	5.828775	116.6582
172	5.680393	103.3013
172.5	5.715939	88.34985
173	5.680015	71.8298
173.5	5.580626	56.77842
174	5.531131	41.59172
174.5	5.56551	26.25452
175	5.495563	10.56579
175.5	5.522441	-3.918528
176	5.6519	-19.87083
176.5	5.710647	-36.23235
177	5.715294	-52.89646
177.5	5.748974	-68.88652
178	5.81302	-85.37405
178.5	5.84855	-101.9276
179	5.933466	-118.5621
179.5	6.037244	-136.7424
180	5.98029	-153.771
180.5	6.07789	-171.8083
181	6.076729	169.1967
181.5	5.846444	150.9275
182	5.707885	134.004
182.5	5.709384	116.58
183	5.609531	98.60724
183.5	5.470759	80.43253
184	5.388705	62.99256
184.5	5.268709	44.65154
185	5.073905	26.99707
185.5	4.983026	9.005327
186	4.783062	-9.354166
186.5	4.563242	-26.7008
187	4.361114	-44.47995
187.5	4.176169	-60.58166
188	4.115054	-77.46706
188.5	3.984509	-96.15718
189	3.762048	-114.4893
189.5	3.546753	-131.2171
190	3.306592	-148.5546
190.5	3.179921	-163.3829
191	3.054927	179.4963
191.5	2.890168	163.2679
192	2.845193	149.4294
192.5	2.907276	131.3667
193	2.873759	110.9428
193.5	2.653113	91.16718
194	2.420255	75.00005
194.5	2.35106	59.53666
195	2.256123	43.91797
195.5	2.348198	26.73243
196	2.236465	6.025963
196.5	2.181006	-9.902582
197	2.275669	-29.24613
197.5	2.164382	-51.78194
198	2.089835	-71.14955
198.5	2.008563	-91.40224
199	1.923258	-110.5624
199.5	1.961616	-131.0058
200	1.887345	-154.197
200.5	1.842385	-174.6407
201	1.791863	163.4943
201.5	1.861138	144.0223
202	1.954206	117.4317
202.5	1.875817	92.81701
203	1.902774	70.46975
203.5	1.935197	45.29354
204	1.846716	24.05718
204.5	1.99997	2.141869
205	1.997429	-21.48739
205.5	2.09718	-41.85352
206	2.125772	-65.92605
206.5	2.269119	-83.57769
207	2.415408	-109.4816
207.5	2.405433	-130.9661
208	2.49541	-152.1608
208.5	2.565011	-173.78
209	2.546674	165.2897
209.5	2.632335	146.1288
210	2.698584	126.1263
210.5	2.774577	105.8103
211	2.79943	85.10373
211.5	2.871112	67.78871
212	2.991718	46.03152
212.5	3.01372	26.79717
213	3.077617	7.254951
213.5	3.107819	-13.74331
214	3.108002	-33.03253
214.5	3.090023	-52.95125
215	3.069655	-72.43574
215.5	3.013204	-90.91216
216	3.022358	-110.0363
216.5	2.932163	-129.1087
217	2.895351	-147.2025
217.5	2.863802	-164.8262
218	2.891558	177.117
218.5	2.930515	156.6783
219	2.843776	137.6355
219.5	2.756898	117.3478
220	2.6394	99.02924
220.5	2.577007	82.00343
221	2.512	62.68743
221.5	2.40185	44.84753
222	2.379312	29.69852
222.5	2.409656	10.06301
223	2.34288	-9.052326
223.5	2.267267	-28.19324
224	2.161183	-44.96291
224.5	2.186996	-65.33434
225	2.027795	-82.79736
225.5	2.018443	-102.2046
226	1.837517	-120.3604
226.5	1.771603	-137.3056
227	1.722843	-150.6744
227.5	1.821529	-169.9546
228	1.844596	169.8026
228.5	1.831931	148.0128
229	1.738039	126.4891
229.5	1.709669	105.2149
230	1.526316	84.37315
230.5	1.46345	65.34793
231	1.377473	48.71662
231.5	1.327724	30.52951
232	1.401361	14.93753
232.5	1.470687	-8.391613
233	1.408788	-32.22425
233.5	1.339073	-51.78657
234	1.330791	-70.97615
234.5	1.337069	-93.12328
235	1.198614	-112.7464
235.5	1.284045	-126.2426
236	1.35954	-148.1239
236.5	1.41713	-170.2543
237	1.423502	166.5358
237.5	1.358516	148.1991
238	1.43879	130.0489
238.5	1.516587	108.4962
239	1.508503	89.14499
239.5	1.609857	68.52731
240	1.526182	47.20496
240.5	1.5902	32.81514
241	1.661857	12.60686
241.5	1.692634	-5.637539
242	1.676948	-23.00708
242.5	1.804483	-36.71287
243	2.027923	-56.91185
243.5	2.017713	-79.25761
244	2.078399	-94.5584
244.5	2.137059	-115.692
245	2.102528	-131.4491
245.5	2.281547	-149.0444
246	2.284036	-167.7834
246.5	2.377846	174.589
247	2.384727	156.1633
247.5	2.454988	140.4711
248	2.578225	122.2218
248.5	2.571513	103.4685
249	2.624061	87.24398
249.5	2.715827	71.44897
250	2.862634	52.62437
250.5	2.924755	34.59253
251	2.943605	17.02547
251.5	3.050839	-0.9971694
252	3.003291	-19.39687
252.5	3.035606	-34.56041
253	3.176517	-52.97842
253.5	3.165539	-71.05212
254	3.153696	-89.0699
254.5	3.114667	-105.4469
255	3.110493	-121.3965
255.5	3.206968	-138.113
256	3.230244	-156.075
256.5	3.262999	-174.1843
257	3.114816	168.3102
257.5	3.155918	153.2312
258	3.167098	134.2673
258.5	3.023221	117.6759
259	2.926649	101.8729
259.5	2.902109	88.3148
260	3.010987	72.85826
260.5	2.995935	54.6343
261	2.919035	38.38522
261.5	2.841667	24.09193
262	2.846829	9.268191
262.5	2.944041	-6.782961
263	2.823235	-23.95533
263.5	2.775196	-37.47815
264	2.773744	-53.33377
264.5	2.713185	-65.75228
265	2.864671	-81.29774
265.5	2.788723	-96.85503
266	2.889856	-111.2853
266.5	2.90607	-128.1106
267	2.810735	-143.3609
267.5	2.827618	-156.6481
268	2.881531	-170.0328
268.5	3.036007	174.2056
269	3.098146	156.9922
269.5	3.029588	142.1868
270	3.115003	126.4625
270.5	3.168858	112.7119
271	3.322688	94.77938
271.5	3.184083	77.9435
272	3.249546	64.67657
272.5	3.291259	48.73637
273	3.342695	33.6452
273.5	3.45449	17.51052
274	3.423093	0.5734845
274.5	3.420922	-12.94405
275	3.547038	-29.72161
275.5	3.596571	-45.09071
276	3.615174	-63.26121
276.5	3.512522	-78.19087
277	3.575696	-93.66506
277.5	3.521468	-108.6022
278	3.59515	-123.2592
278.5	3.730863	-139.5448
279	3.67897	-156.4711
279.5	3.699636	-172.4243
280	3.601784	171.583
280.5	3.657157	157.8648
281	3.686611	140.3969
281.5	3.619649	125.9813
282	3.663953	110.1705
282.5	3.595321	95.22774
283	3.694851	81.44169
283.5	3.734399	64.44826
284	3.746301	50.27733
284.5	3.837613	33.65823
285	3.809799	18.19511
285.5	3.866834	1.908418
286	3.735674	-14.21036
286.5	3.769227	-27.66365
287	3.736876	-43.44482
287.5	3.786835	-57.23261
288	3.864232	-73.34521
288.5	3.758686	-87.98606
289	3.913778	-101.3961
289.5	4.026937	-118.2493
290	4.013015	-134.0854
290.5	4.056489	-149.5939
291	4.051624	-164.9875
291.5	4.110424	179.1499
292	4.078695	163.8329
292.5	4.099624	148.4542
293	4.103725	133.4408
293.5	4.135062	119.0018
294	4.285617	103.6047
294.5	4.27806	86.44868
295	4.281369	71.97959
295.5	4.301607	56.18493
296	4.324654	41.21328
296.5	4.369171	25.45803
297	4.35465	10.67971
297.5	4.441607	-3.916859
298	4.5385	-20.4758
298.5	4.460846	-35.63864
299	4.567034	-49.67505
299.5	4.660069	-66.31635
300	4.68605	-82.22655
300.5	4.629517	-97.20453
301	4.705979	-112.213
301.5	4.787326	-127.7079
302	4.78743	-142.7721
302.5	4.962922	-158.8241
303	4.880385	-175.4848
303.5	4.866209	170.3729
304	4.978417	155.2276
304.5	5.059178	139.7863
305	5.154957	123.5754
305.5	5.178507	107.7957
306	5.219577	91.37234
306.5	5.204548	76.10332
307	5.282683	60.52184
307.5	5.253904	43.67698
308	5.165831	29.60454
308.5	5.249499	14.89409
309	5.331525	-0.4401694
309.5	5.445505	-15.58396
310	5.465761	-31.89539
310.5	5.54824	-47.03272
311	5.596634	-63.12724
311.5	5.625403	-78.62163
312	5.626408	-94.86266
312.5	5.63968	-109.3948
313	5.745791	-125.238
313.5	5.740119	-141.3882
314	5.710727	-156.5273
314.5	5.8008	-171.2283
315	5.829229	173.2936
315.5	5.980162	157.9812
316	6.026506	141.5594
316.5	6.04823	126.4222
317	6.14576	110.1867
317.5	6.155828	94.68522
318	6.229406	79.0741
318.5	6.249249	63.01363
319	6.266347	47.73564
319.5	6.277463	32.3817
320	6.363832	17.5381
320.5	6.535229	1.919272
321	6.565066	-14.73306
321.5	6.611188	-29.70159
322	6.678803	-45.93859
322.5	6.72853	-61.17338
323	6.847133	-77.47205
323.5	6.832662	-93.07465
324	6.963406	-109.2075
324.5	6.883978	-125.4049
325	6.954555	-140.2861
325.5	7.040263	-156.4324
326	7.00053	-172.1264
326.5	7.119749	172.5065
327	7.138811	156.7901
327.5	7.258198	140.9311
328	7.303576	124.9639
328.5	7.371887	108.9127
329	7.374332	92.85344
329.5	7.41561	77.40795
330	7.509804	61.46116
330.5	7.517756	45.08594
331	7.495532	29.67881
331.5	7.544701	14.11544
332	7.62827	-1.215602
332.5	7.729337	-17.22223
333	7.811928	-33.33498
333.5	7.819752	-49.68406
334	7.848624	-65.14066
334.5	7.889557	-81.26394
335	7.991521	-97.03217
335.5	7.997743	-113.8361
336	7.927402	-129.4575
336.5	7.939877	-145.0746
337	7.992226	-160.2149
337.5	8.220449	-176.4739
338	8.160355	166.3068
338.5	8.07459	150.4648
339	8.099634	135.2723
339.5	8.159397	119.0991
340	8.190084	102.7747
340.5	8.088291	86.8503
341	8.113498	71.78261
341.5	8.218696	55.77058
342	8.287192	39.72575
342.5	8.286227	22.65696
343	8.145552	7.292414
343.5	8.256927	-8.596392
344	8.169979	-25.07467
344.5	8.084213	-40.34302
345	8.071572	-56.00246
345.5	8.098802	-70.86833
346	8.22742	-87.20706
346.5	8.20206	-103.2792
347	8.219388	-119.4702
347.5	8.122247	-135.5492
348	8.170121	-150.8859
348.5	8.140468	-167.5403
349	7.9934	176.801
349.5	8.027537	161.5943
350	7.960366	146.0232
