Source File Name:	4,2,2
Signal:	FFT - Ref1 Force - Mag. & Phase

Frequency	Magnitude	Phase
[ Hz ]	[ N ]	[ ° ]
20	0.0001253871	160.1202
20.5	0.0001251089	146.1926
21	0.0001245072	132.0794
21.5	0.0001246061	117.9137
22	0.000124863	104.0332
22.5	0.0001247926	89.83291
23	0.0001247344	75.78033
23.5	0.0001250302	61.91839
24	0.0001245589	47.8459
24.5	0.0001248779	33.76224
25	0.0001251278	19.80387
25.5	0.000125097	5.767468
26	0.0001251605	-8.190182
26.5	0.0001254867	-22.0147
27	0.0001251078	-36.02461
27.5	0.000125335	-50.01064
28	0.0001253697	-63.97846
28.5	0.0001251238	-77.86749
29	0.0001250066	-91.90129
29.5	0.0001251502	-105.752
30	0.0001249103	-119.6889
30.5	0.0001247441	-133.5927
31	0.0001246723	-147.5978
31.5	0.0001242729	-161.6426
32	0.0001242611	-175.5308
32.5	0.0001240569	170.4051
33	0.0001235107	156.4167
33.5	0.0001236671	142.3202
34	0.0001233444	128.4061
34.5	0.0001231276	114.303
35	0.0001230773	100.3041
35.5	0.0001232364	86.17477
36	0.0001228212	72.16936
36.5	0.0001230435	58.2686
37	0.0001230632	44.1539
37.5	0.0001230816	30.14397
38	0.0001228186	16.21657
38.5	0.0001229256	2.253045
39	0.0001229453	-11.85481
39.5	0.0001229814	-25.71959
40	0.0001229558	-39.73335
40.5	0.0001228204	-53.71477
41	0.0001228428	-67.68633
41.5	0.0001226272	-81.58036
42	0.000122557	-95.51414
42.5	0.0001223855	-109.5234
43	0.0001222222	-123.5545
43.5	0.0001218712	-137.4572
44	0.0001217213	-151.3401
44.5	0.0001215118	-165.4439
45	0.0001212128	-179.4849
45.5	0.0001212796	166.5295
46	0.0001208954	152.5656
46.5	0.0001207829	138.4211
47	0.0001205808	124.5004
47.5	0.000120211	110.4875
48	0.0001204668	96.40057
48.5	0.0001202161	82.49408
49	0.0001198676	68.40397
49.5	0.0001201226	54.43259
50	0.0001198258	40.4013
50.5	0.0001195845	26.40148
51	0.0001198129	12.41021
51.5	0.0001194515	-1.5946
52	0.0001195404	-15.52967
52.5	0.000119458	-29.50377
53	0.0001192481	-43.45326
53.5	0.000119025	-57.37276
54	0.0001192293	-71.37029
54.5	0.0001191277	-85.31889
55	0.000118836	-99.22936
55.5	0.0001186102	-113.201
56	0.0001183909	-127.1294
56.5	0.0001183407	-141.2003
57	0.0001179193	-155.023
57.5	0.000118025	-169.0004
58	0.0001175487	176.9028
58.5	0.0001173201	162.9052
59	0.0001170609	148.9922
59.5	0.0001169741	134.8136
60	0.0001167466	120.8956
60.5	0.0001165276	106.9594
61	0.0001165651	92.79946
61.5	0.0001163279	78.79817
62	0.0001161824	64.80066
62.5	0.0001161933	50.82996
63	0.0001159017	36.77297
63.5	0.0001157884	23.01381
64	0.0001157022	8.997082
64.5	0.0001156275	-5.447615
65	0.0001155749	-19.12877
65.5	0.0001152747	-33.0584
66	0.0001152303	-47.13727
66.5	0.0001150768	-61.00239
67	0.0001149027	-74.86479
67.5	0.0001147923	-88.91003
68	0.0001143971	-102.8796
68.5	0.0001143844	-116.8565
69	0.0001142113	-130.8886
69.5	0.0001139829	-144.7821
70	0.0001136901	-158.6981
70.5	0.0001134164	-172.7213
71	0.0001133877	173.3178
71.5	0.0001129602	159.2969
72	0.0001129153	145.2427
72.5	0.0001127007	131.2493
73	0.0001123819	117.338
73.5	0.0001120492	103.2521
74	0.0001120433	89.24765
74.5	0.0001119147	75.2664
75	0.0001115806	61.22184
75.5	0.0001117126	47.30402
76	0.0001115061	33.30719
76.5	0.0001111401	19.29642
77	0.0001109363	5.353637
77.5	0.0001109343	-8.545123
78	0.0001107403	-22.6212
78.5	0.0001104086	-36.62772
79	0.0001104847	-50.56289
79.5	0.0001102116	-64.52734
80	0.0001100045	-78.46292
80.5	0.0001097865	-92.43888
81	0.0001096262	-106.3654
81.5	0.000109342	-120.2819
82	0.0001089635	-134.3465
82.5	0.0001087477	-148.3164
83	0.0001085271	-162.3317
83.5	0.0001083428	-176.2216
84	0.0001080412	169.8209
84.5	0.0001077828	155.7712
85	0.0001075813	141.7762
85.5	0.000107171	127.6291
86	0.0001070408	113.7722
86.5	0.0001068396	99.76903
87	0.0001067215	85.72866
87.5	0.0001065929	71.73106
88	0.0001063592	57.79189
88.5	0.0001060228	43.77236
89	0.0001058241	29.70096
89.5	0.0001057798	15.7486
90	0.0001054379	1.820272
90.5	0.0001053009	-12.19369
91	0.0001052921	-26.09534
91.5	0.0001048206	-40.09119
92	0.0001047883	-54.05677
92.5	0.0001044621	-67.99285
93	0.00010435	-81.9911
93.5	0.0001042701	-95.8886
94	0.0001038393	-109.8382
94.5	0.000103447	-123.9192
95	0.0001034711	-137.78
95.5	0.0001029113	-151.8162
96	0.0001027865	-165.8362
96.5	0.0001026431	-179.6495
97	0.0001022042	166.2986
97.5	0.0001017224	152.2487
98	0.0001017752	138.3376
98.5	0.000101403	124.2562
99	0.00010111	110.3305
99.5	0.0001009564	96.42168
100	0.0001007801	82.26185
100.5	0.000100461	68.23027
101	0.0001002608	54.38459
101.5	0.0001001738	40.43053
102	9.998059e-5	26.35932
102.5	9.965128e-5	12.40552
103	9.955575e-5	-1.653273
103.5	9.92861e-5	-15.50043
104	9.927074e-5	-29.50549
104.5	9.888921e-5	-43.51929
105	9.858674e-5	-57.40825
105.5	9.83963e-5	-71.342
106	9.821368e-5	-85.35759
106.5	9.793577e-5	-99.22298
107	9.766073e-5	-113.2272
107.5	9.742356e-5	-127.1794
108	9.722584e-5	-141.1267
108.5	9.684102e-5	-155.0732
109	9.656377e-5	-169.1243
109.5	9.623615e-5	176.9454
110	9.608856e-5	162.9405
110.5	9.579827e-5	149.0701
111	9.543011e-5	135.1197
111.5	9.526219e-5	120.9904
112	9.513579e-5	107.0455
112.5	9.485285e-5	92.99134
113	9.464744e-5	79.02188
113.5	9.433367e-5	65.03302
114	9.401499e-5	51.02244
114.5	9.388921e-5	37.16584
115	9.375939e-5	23.16697
115.5	9.334031e-5	9.08981
116	9.305129e-5	-4.922283
116.5	9.305244e-5	-18.77716
117	9.273278e-5	-32.71888
117.5	9.241753e-5	-46.71551
118	9.22569e-5	-60.67957
118.5	9.183401e-5	-74.61956
119	9.177006e-5	-88.60696
119.5	9.141523e-5	-102.4325
120	9.110152e-5	-116.3855
120.5	9.092344e-5	-130.3704
121	9.077903e-5	-144.3253
121.5	9.029967e-5	-158.2387
122	8.992204e-5	-172.3238
122.5	8.981108e-5	173.7525
123	8.949528e-5	159.7968
123.5	8.921643e-5	145.8363
124	8.906722e-5	131.9075
124.5	8.871134e-5	117.8634
125	8.852376e-5	103.8426
125.5	8.81577e-5	89.99523
126	8.796962e-5	75.94823
126.5	8.759982e-5	62.06446
127	8.742642e-5	47.95799
127.5	8.727432e-5	33.95687
128	8.692699e-5	20.04621
128.5	8.634962e-5	6.099623
129	8.650192e-5	-7.845657
129.5	8.640872e-5	-21.85566
130	8.609382e-5	-35.78307
130.5	8.56627e-5	-49.72136
131	8.543346e-5	-63.61987
131.5	8.529655e-5	-77.56889
132	8.491638e-5	-91.43921
132.5	8.460364e-5	-105.3717
133	8.432053e-5	-119.385
133.5	8.41597e-5	-133.353
134	8.377533e-5	-147.289
134.5	8.340355e-5	-161.2492
135	8.325611e-5	-175.2336
135.5	8.288158e-5	170.9229
136	8.271209e-5	156.7857
136.5	8.242796e-5	142.8861
137	8.218089e-5	128.9227
137.5	8.185497e-5	114.8517
138	8.156276e-5	100.9916
138.5	8.135165e-5	86.9827
139	8.111561e-5	72.97253
139.5	8.079381e-5	59.01324
140	8.064158e-5	45.15977
140.5	8.028458e-5	31.1243
141	7.993985e-5	17.22394
141.5	7.978064e-5	3.254027
142	7.95032e-5	-10.74994
142.5	7.945786e-5	-24.67821
143	7.906074e-5	-38.56257
143.5	7.871372e-5	-52.43518
144	7.852629e-5	-66.40816
144.5	7.843658e-5	-80.37322
145	7.800709e-5	-94.26417
145.5	7.766576e-5	-108.203
146	7.745971e-5	-122.1804
146.5	7.71284e-5	-136.179
147	7.679561e-5	-150.1748
147.5	7.667217e-5	-163.952
148	7.63538e-5	-177.9347
148.5	7.601693e-5	167.923
149	7.57313e-5	154.0295
149.5	7.541816e-5	140.1036
150	7.526042e-5	126.1241
150.5	7.489452e-5	112.2211
151	7.466282e-5	98.225
151.5	7.447381e-5	84.27245
152	7.409843e-5	70.27467
152.5	7.39861e-5	56.28553
153	7.374647e-5	42.38086
153.5	7.333192e-5	28.49798
154	7.321038e-5	14.62314
154.5	7.301087e-5	0.6263953
155	7.273597e-5	-13.30046
155.5	7.251639e-5	-27.2057
156	7.208462e-5	-41.12592
156.5	7.188001e-5	-54.92244
157	7.152052e-5	-69.02527
157.5	7.12115e-5	-82.87643
158	7.102091e-5	-96.75211
158.5	7.081108e-5	-110.773
159	7.049315e-5	-124.699
159.5	7.018379e-5	-138.6128
160	7.000934e-5	-152.6808
160.5	6.947968e-5	-166.4557
161	6.92803e-5	179.4638
161.5	6.913424e-5	165.5345
162	6.886706e-5	151.7129
162.5	6.859899e-5	137.6688
163	6.814428e-5	123.7598
163.5	6.794228e-5	109.7994
164	6.76883e-5	95.95904
164.5	6.733528e-5	81.9548
165	6.709031e-5	67.86686
165.5	6.692853e-5	54.01571
166	6.672148e-5	40.11034
166.5	6.650961e-5	26.14624
167	6.621322e-5	12.1726
167.5	6.591262e-5	-1.666867
168	6.573385e-5	-15.59962
168.5	6.555941e-5	-29.53805
169	6.534415e-5	-43.35438
169.5	6.508079e-5	-57.27749
170	6.472747e-5	-71.20126
170.5	6.435782e-5	-85.13657
171	6.423484e-5	-99.15813
171.5	6.393984e-5	-113.0539
172	6.357751e-5	-126.8901
172.5	6.331361e-5	-140.7352
173	6.292939e-5	-154.7644
173.5	6.273021e-5	-168.7581
174	6.259199e-5	177.5505
174.5	6.210974e-5	163.3725
175	6.189804e-5	149.4005
175.5	6.1617e-5	135.5239
176	6.127599e-5	121.5014
176.5	6.117942e-5	107.6415
177	6.093174e-5	93.75137
177.5	6.063455e-5	79.82998
178	6.04307e-5	65.80099
178.5	6.030188e-5	51.92607
179	5.987255e-5	38.02536
179.5	5.966166e-5	24.03065
180	5.945723e-5	10.2736
180.5	5.924541e-5	-3.744885
181	5.894545e-5	-17.66731
181.5	5.873896e-5	-31.47369
182	5.856374e-5	-45.46749
182.5	5.8336e-5	-59.28036
183	5.799365e-5	-73.2002
183.5	5.771977e-5	-87.12483
184	5.747946e-5	-101.0281
184.5	5.72319e-5	-114.8968
185	5.686508e-5	-128.9079
185.5	5.661995e-5	-142.6276
186	5.646876e-5	-156.7282
186.5	5.608317e-5	-170.5993
187	5.583653e-5	175.5069
187.5	5.558767e-5	161.5269
188	5.52262e-5	147.7912
188.5	5.498439e-5	133.7825
189	5.491532e-5	119.7148
189.5	5.453363e-5	105.875
190	5.436706e-5	92.01738
190.5	5.411177e-5	77.93993
191	5.382269e-5	64.00374
191.5	5.371232e-5	50.30048
192	5.334909e-5	36.38765
192.5	5.323064e-5	22.40529
193	5.30209e-5	8.53549
193.5	5.273593e-5	-5.291191
194	5.239727e-5	-19.42629
194.5	5.240728e-5	-33.2137
195	5.199992e-5	-46.96971
195.5	5.169773e-5	-60.89111
196	5.167858e-5	-74.76402
196.5	5.132426e-5	-88.50457
197	5.116333e-5	-102.6393
197.5	5.094398e-5	-116.4504
198	5.047328e-5	-130.362
198.5	5.025235e-5	-144.0907
199	4.999711e-5	-157.9115
199.5	4.968161e-5	-172.0665
200	4.96518e-5	174.0942
200.5	4.939062e-5	160.3311
201	4.894517e-5	146.1831
201.5	4.878884e-5	132.242
202	4.850122e-5	118.5064
202.5	4.829734e-5	104.5412
203	4.816915e-5	90.57032
203.5	4.788891e-5	76.77612
204	4.763124e-5	62.74756
204.5	4.750993e-5	48.8611
205	4.716036e-5	35.10306
205.5	4.70378e-5	21.08683
206	4.686828e-5	7.175702
206.5	4.650434e-5	-6.551208
207	4.648234e-5	-20.61596
207.5	4.619463e-5	-34.33396
208	4.578164e-5	-48.23092
208.5	4.582519e-5	-62.11052
209	4.563244e-5	-75.93742
209.5	4.51498e-5	-89.86008
210	4.501666e-5	-103.7194
210.5	4.457368e-5	-117.4888
211	4.464665e-5	-131.536
211.5	4.435786e-5	-145.2936
212	4.405619e-5	-159.0513
212.5	4.383847e-5	-173.1964
213	4.356595e-5	173.0212
213.5	4.330237e-5	159.1876
214	4.308304e-5	145.2822
214.5	4.295455e-5	131.3024
215	4.279272e-5	117.6628
215.5	4.248802e-5	103.4708
216	4.21886e-5	89.63651
216.5	4.200241e-5	75.91026
217	4.18401e-5	61.88963
217.5	4.172426e-5	48.11651
218	4.140311e-5	34.2584
218.5	4.125018e-5	20.50458
219	4.107714e-5	6.371185
219.5	4.084551e-5	-7.484693
220	4.055088e-5	-21.06258
220.5	4.048059e-5	-34.93978
221	4.037292e-5	-48.98695
221.5	3.992387e-5	-62.69945
222	3.990882e-5	-76.67154
222.5	3.966778e-5	-90.45938
223	3.939793e-5	-104.3031
223.5	3.926791e-5	-118.1077
224	3.89397e-5	-131.7666
224.5	3.866623e-5	-145.8706
225	3.852576e-5	-159.8041
225.5	3.836818e-5	-173.6256
226	3.816656e-5	172.5906
226.5	3.79112e-5	158.7693
227	3.772799e-5	144.7597
227.5	3.735362e-5	130.9776
228	3.728677e-5	117.1068
228.5	3.72432e-5	103.1926
229	3.676462e-5	89.39876
229.5	3.664909e-5	75.47892
230	3.655108e-5	61.78299
230.5	3.638456e-5	47.67957
231	3.620644e-5	33.92969
231.5	3.599148e-5	20.19341
232	3.577569e-5	6.165043
232.5	3.564584e-5	-7.543087
233	3.547921e-5	-21.58019
233.5	3.533694e-5	-35.01856
234	3.5016e-5	-48.82553
234.5	3.498578e-5	-63.0334
235	3.466281e-5	-76.75967
235.5	3.449682e-5	-90.48547
236	3.43472e-5	-104.2861
236.5	3.404998e-5	-118.3816
237	3.386439e-5	-132.0185
237.5	3.369213e-5	-145.5608
238	3.344307e-5	-159.7717
238.5	3.330996e-5	-173.6058
239	3.312739e-5	172.6631
239.5	3.302747e-5	158.7832
240	3.284321e-5	144.8198
240.5	3.251786e-5	131.1078
241	3.23563e-5	117.0651
241.5	3.226284e-5	103.3557
242	3.200381e-5	89.79128
242.5	3.178137e-5	75.67867
243	3.169948e-5	61.78759
243.5	3.155911e-5	47.94237
244	3.134795e-5	33.86422
244.5	3.117797e-5	20.13434
245	3.110333e-5	6.472293
245.5	3.082969e-5	-7.008067
246	3.074777e-5	-20.94835
246.5	3.064005e-5	-34.62589
247	3.038724e-5	-48.62002
247.5	3.025708e-5	-62.53001
248	2.998831e-5	-76.30066
248.5	2.975649e-5	-90.09944
249	2.959147e-5	-103.8738
249.5	2.94666e-5	-117.604
250	2.945966e-5	-131.2967
250.5	2.90754e-5	-145.1495
251	2.889211e-5	-159.1718
251.5	2.872591e-5	-172.8456
252	2.858878e-5	173.2636
252.5	2.839756e-5	159.5695
253	2.822883e-5	145.6703
253.5	2.808523e-5	131.8589
254	2.805627e-5	118.0363
254.5	2.785347e-5	103.9411
255	2.768308e-5	90.51148
255.5	2.744483e-5	76.57298
256	2.735358e-5	62.57422
256.5	2.736172e-5	48.91062
257	2.714186e-5	35.04871
257.5	2.662967e-5	21.86448
258	2.669862e-5	7.620619
258.5	2.681473e-5	-6.57922
259	2.655811e-5	-19.80756
259.5	2.61758e-5	-33.48363
260	2.629697e-5	-47.60072
260.5	2.590827e-5	-61.29193
261	2.582621e-5	-74.7766
261.5	2.581217e-5	-88.94164
262	2.575805e-5	-102.57
262.5	2.544001e-5	-116.3845
263	2.519234e-5	-130.1556
263.5	2.504162e-5	-143.9213
264	2.500469e-5	-158.0907
264.5	2.474728e-5	-171.516
265	2.4644e-5	174.7282
265.5	2.457058e-5	160.7294
266	2.432866e-5	146.8091
266.5	2.416985e-5	132.8864
267	2.418479e-5	119.2375
267.5	2.379414e-5	105.3938
268	2.367781e-5	91.97348
268.5	2.369678e-5	77.83965
269	2.359618e-5	64.18557
269.5	2.351506e-5	50.36686
270	2.328928e-5	36.65779
270.5	2.314782e-5	22.77144
271	2.301009e-5	9.151127
271.5	2.2976e-5	-4.558811
272	2.275653e-5	-18.36149
272.5	2.268228e-5	-31.80322
273	2.264479e-5	-45.87463
273.5	2.237833e-5	-59.60498
274	2.229197e-5	-73.33125
274.5	2.203591e-5	-86.97815
275	2.207672e-5	-100.7422
275.5	2.186153e-5	-114.4751
276	2.16949e-5	-128.2054
276.5	2.159789e-5	-142.1791
277	2.145746e-5	-155.62
277.5	2.121787e-5	-169.8102
278	2.117183e-5	176.4535
278.5	2.115171e-5	162.8918
279	2.088591e-5	149.4471
279.5	2.077131e-5	135.2507
280	2.061535e-5	121.1592
280.5	2.052775e-5	107.6068
281	2.052479e-5	94.11018
281.5	2.020834e-5	79.9371
282	2.025487e-5	66.07044
282.5	2.019264e-5	52.54913
283	2.000152e-5	38.67075
283.5	1.997658e-5	25.22494
284	1.98491e-5	11.54753
284.5	1.967192e-5	-2.553946
285	1.962565e-5	-16.17846
285.5	1.949342e-5	-29.50169
286	1.933851e-5	-43.47263
286.5	1.933387e-5	-56.99058
287	1.92378e-5	-70.62017
287.5	1.901069e-5	-84.70905
288	1.899262e-5	-98.41262
288.5	1.882327e-5	-111.693
289	1.859645e-5	-125.7704
289.5	1.847878e-5	-139.4034
290	1.829635e-5	-153.3284
290.5	1.83533e-5	-166.8459
291	1.819174e-5	178.779
291.5	1.803749e-5	165.284
292	1.792905e-5	151.8198
292.5	1.780064e-5	137.8356
293	1.766665e-5	124.2855
293.5	1.76282e-5	110.5419
294	1.751973e-5	96.70029
294.5	1.735823e-5	83.01723
295	1.735791e-5	69.25624
295.5	1.730569e-5	55.40372
296	1.716958e-5	41.45554
296.5	1.719956e-5	28.17852
297	1.702864e-5	14.49729
297.5	1.693549e-5	0.610425
298	1.675735e-5	-12.84116
298.5	1.675618e-5	-26.58133
299	1.66602e-5	-41.11931
299.5	1.655532e-5	-54.52203
300	1.650546e-5	-67.77902
300.5	1.621841e-5	-81.40311
301	1.60808e-5	-95.5542
301.5	1.620674e-5	-109.0132
302	1.599259e-5	-122.2928
302.5	1.580309e-5	-136.0658
303	1.588028e-5	-150.3546
303.5	1.570971e-5	-164.1035
304	1.547744e-5	-177.6434
304.5	1.556667e-5	168.4097
305	1.535649e-5	154.909
305.5	1.526934e-5	141.636
306	1.528347e-5	127.2569
306.5	1.526436e-5	113.2961
307	1.497761e-5	100.0626
307.5	1.49528e-5	86.48376
308	1.485616e-5	72.214
308.5	1.483115e-5	58.79412
309	1.484277e-5	45.31069
309.5	1.473275e-5	31.62797
310	1.44933e-5	17.34992
310.5	1.454512e-5	4.096057
311	1.452369e-5	-10.04107
311.5	1.449125e-5	-23.13684
312	1.433663e-5	-36.93933
312.5	1.422682e-5	-50.38406
313	1.409159e-5	-64.6178
313.5	1.409588e-5	-77.91921
314	1.410988e-5	-91.25832
314.5	1.387525e-5	-105.2615
315	1.360024e-5	-119.3067
315.5	1.363615e-5	-132.2593
316	1.358978e-5	-146.7845
316.5	1.331222e-5	-160.0291
317	1.341673e-5	-173.2807
317.5	1.337737e-5	172.5403
318	1.323211e-5	158.6289
318.5	1.316789e-5	144.8714
319	1.310916e-5	131.464
319.5	1.288912e-5	117.9143
320	1.296432e-5	103.5008
320.5	1.290048e-5	90.25992
321	1.291141e-5	76.26996
321.5	1.297384e-5	62.08744
322	1.251446e-5	49.03388
322.5	1.254243e-5	35.87172
323	1.253007e-5	21.42691
323.5	1.250657e-5	7.700223
324	1.243242e-5	-5.984756
324.5	1.233922e-5	-19.47727
325	1.239696e-5	-32.9682
325.5	1.217565e-5	-46.12687
326	1.214018e-5	-60.21407
326.5	1.214605e-5	-73.52788
327	1.197578e-5	-87.69693
327.5	1.183672e-5	-101.0335
328	1.184564e-5	-114.7917
328.5	1.17737e-5	-128.384
329	1.161713e-5	-142.0462
329.5	1.155315e-5	-155.8912
330	1.151778e-5	-169.8265
330.5	1.145069e-5	176.9156
331	1.135138e-5	163.3662
331.5	1.132223e-5	149.6844
332	1.127024e-5	135.7817
332.5	1.118628e-5	121.8962
333	1.110829e-5	108.3856
333.5	1.114379e-5	94.56899
334	1.091001e-5	80.98042
334.5	1.090418e-5	67.63878
335	1.087758e-5	53.56112
335.5	1.083843e-5	39.48087
336	1.07906e-5	25.79146
336.5	1.07688e-5	13.19351
337	1.073002e-5	-0.9610339
337.5	1.060486e-5	-14.57032
338	1.060125e-5	-27.92009
338.5	1.052063e-5	-41.53302
339	1.041493e-5	-55.42401
339.5	1.035716e-5	-68.78738
340	1.029773e-5	-82.67703
340.5	1.028167e-5	-95.95481
341	1.013708e-5	-109.2439
341.5	1.016231e-5	-124.172
342	9.980567e-6	-136.8666
342.5	9.898195e-6	-150.5952
343	1.000615e-5	-164.8643
343.5	9.880769e-6	-177.9686
344	9.68452e-6	168.5731
344.5	9.791073e-6	154.0132
345	9.548575e-6	139.9911
345.5	9.649778e-6	126.2792
346	9.550132e-6	113.0073
346.5	9.570207e-6	99.30204
347	9.45274e-6	85.82326
347.5	9.455151e-6	72.5538
348	9.233457e-6	58.5042
348.5	9.314458e-6	44.75605
349	9.260642e-6	31.16219
349.5	9.334162e-6	17.81183
350	9.204124e-6	4.017828
