Source File Name:	6,1,3
Signal:	FFT - Vib Velocity - Mag. & Phase

Frequency	Magnitude	Phase
[ Hz ]	[ m/s ]	[ ° ]
20	30.7944	-37.80025
20.5	32.96621	-70.34561
21	30.28619	-102.5014
21.5	25.96762	-130.7728
22	21.84414	-149.465
22.5	19.08501	-170.0126
23	15.32456	167.2793
23.5	14.874	150.2504
24	13.34106	134.0098
24.5	12.62527	119.7327
25	12.12416	104.946
25.5	10.89729	91.45367
26	10.60641	76.16376
26.5	10.36515	61.71888
27	9.876634	46.74599
27.5	9.665057	32.75408
28	9.725932	18.38632
28.5	9.258809	1.692433
29	9.12767	-12.50037
29.5	8.946393	-27.79919
30	8.631744	-42.29692
30.5	8.481345	-57.30806
31	8.533024	-72.19946
31.5	8.319137	-87.69671
32	8.274827	-101.2302
32.5	7.991202	-116.5406
33	7.872046	-130.2448
33.5	7.007601	-146.6185
34	8.180484	-160.6197
34.5	7.994911	-174.9527
35	8.194527	169.2492
35.5	8.187992	153.6345
36	8.226525	139.7913
36.5	8.307434	124.2708
37	8.294309	107.3707
37.5	8.350823	93.9491
38	8.365294	77.68982
38.5	8.064784	60.9376
39	8.267393	46.49694
39.5	8.244203	29.33509
40	8.075379	13.89741
40.5	8.003521	-0.7621056
41	7.982875	-16.6061
41.5	7.783961	-32.91758
42	7.729414	-48.54179
42.5	7.443479	-65.52028
43	6.977839	-80.80467
43.5	6.82918	-94.00918
44	6.424442	-109.8296
44.5	6.076638	-121.9114
45	6.136631	-134.1293
45.5	5.899687	-146.0601
46	5.741972	-157.1947
46.5	6.009059	-168.5326
47	6.199007	177.8878
47.5	6.388771	163.0669
48	6.649101	148.9362
48.5	6.55685	135.1661
49	6.771813	129.6381
49.5	7.63419	111.5357
50	6.415133	93.16837
50.5	6.930459	80.41039
51	6.980569	65.81162
51.5	7.285263	51.96795
52	7.340197	37.1263
52.5	7.523069	23.04362
53	7.663059	9.698254
53.5	7.816646	-3.143902
54	8.03449	-17.73792
54.5	8.199543	-31.52422
55	8.145012	-45.5386
55.5	8.389994	-60.84312
56	8.618443	-74.14986
56.5	8.936448	-89.90276
57	8.978158	-104.1653
57.5	9.275109	-118.7507
58	9.486236	-133.1234
58.5	9.738744	-147.3771
59	9.886407	-162.0701
59.5	10.11373	-176.2792
60	10.30252	168.891
60.5	10.63024	154.1683
61	10.82128	139.4224
61.5	11.07601	125.201
62	11.43602	110.425
62.5	11.57413	95.6086
63	11.9608	81.40984
63.5	12.2479	66.32344
64	12.56142	51.89081
64.5	13.0495	36.64887
65	13.25719	21.45997
65.5	13.71296	6.979916
66	14.1587	-7.602818
66.5	14.66076	-22.77938
67	14.97656	-37.65073
67.5	15.51593	-52.10615
68	15.92911	-67.69444
68.5	16.28886	-82.41695
69	16.92173	-97.65318
69.5	17.36685	-113.053
70	17.93637	-128.0741
70.5	18.73735	-143.2803
71	19.31842	-158.6068
71.5	20.10285	-173.9729
72	20.76761	170.5692
72.5	21.43404	154.5894
73	22.12779	139.0826
73.5	23.07022	123.3372
74	23.783	107.2477
74.5	24.67909	91.79003
75	25.55132	75.87386
75.5	26.51765	59.65798
76	27.43514	43.68887
76.5	28.53864	27.41408
77	29.56261	10.98676
77.5	30.6428	-5.631732
78	31.80228	-22.37346
78.5	32.89821	-39.03931
79	34.11785	-55.80431
79.5	35.29405	-72.8316
80	36.30066	-89.90107
80.5	37.53168	-106.9421
81	38.73438	-124.4714
81.5	39.92014	-142.0011
82	41.10151	-159.6898
82.5	42.22064	-177.7396
83	43.15785	164.2718
83.5	44.10045	146.0941
84	44.81821	127.8572
84.5	45.46883	109.5333
85	46.14737	90.87916
85.5	46.40067	71.91231
86	46.41983	53.10421
86.5	46.36404	34.17193
87	45.83331	15.20352
87.5	45.02232	-3.693479
88	43.92711	-22.56167
88.5	42.48541	-41.03809
89	40.98676	-59.25346
89.5	39.41856	-77.21651
90	37.75447	-94.7494
90.5	36.32192	-111.9223
91	35.08957	-128.8692
91.5	33.78791	-145.8699
92	32.55383	-162.347
92.5	31.49561	-179.2574
93	30.30241	164.1122
93.5	29.41238	147.5855
94	28.49098	130.9077
94.5	27.5844	114.4861
95	26.86157	97.77572
95.5	26.03279	81.1284
96	25.25911	64.21068
96.5	24.49417	47.07523
97	23.61049	29.69522
97.5	22.68576	12.23927
98	21.95461	-5.383293
98.5	20.98527	-23.84824
99	19.90451	-41.75489
99.5	18.72916	-60.30105
100	17.28398	-79.15383
100.5	15.75978	-98.04227
101	13.98719	-117.491
101.5	12.06207	-136.4443
102	10.07717	-155.249
102.5	7.990495	-173.5372
103	5.814796	170.992
103.5	3.865232	163.2291
104	2.663668	170.2027
104.5	2.377548	-167.6106
105	3.180585	-160.0355
105.5	4.104237	-164.4551
106	5.093306	-174.9266
106.5	6.03433	170.1531
107	6.764299	155.5793
107.5	7.460178	139.9444
108	7.992157	124.0894
108.5	8.34415	108.7861
109	8.774718	93.50483
109.5	9.124582	78.34629
110	9.403782	62.80211
110.5	9.652929	47.13714
111	9.730449	31.03042
111.5	9.933741	15.94673
112	10.15449	0.5867481
112.5	10.32129	-15.24681
113	10.39194	-29.69052
113.5	10.55511	-44.63939
114	10.64301	-60.07825
114.5	10.65195	-74.73775
115	10.77605	-89.72504
115.5	10.87842	-104.6789
116	11.03655	-119.6798
116.5	11.22116	-135.79
117	11.17348	-150.537
117.5	11.39982	-165.3389
118	11.48475	179.1252
118.5	11.4234	163.9983
119	11.49606	149.0818
119.5	11.61403	133.9258
120	11.75319	118.4876
120.5	11.95944	103.306
121	12.08446	87.57387
121.5	12.23292	71.95715
122	12.37379	56.3005
122.5	12.4104	39.86555
123	12.38652	24.60216
123.5	12.4825	8.202082
124	12.41736	-8.230984
124.5	12.38478	-24.09294
125	12.44853	-40.53365
125.5	12.36027	-56.42244
126	12.30664	-72.50065
126.5	12.23948	-89.19193
127	11.99834	-105.7774
127.5	11.88612	-122.3806
128	11.62741	-139.4869
128.5	11.28536	-156.3235
129	11.00882	-172.9022
129.5	10.64225	170.1309
130	10.23075	154.1338
130.5	9.861083	137.9867
131	9.33956	121.2981
131.5	8.739025	105.1052
132	8.141374	88.89738
132.5	7.54096	72.84151
133	6.972123	58.19225
133.5	6.423548	42.9226
134	5.765765	28.88296
134.5	5.162862	17.227
135	4.700111	5.460413
135.5	4.174449	-3.362939
136	3.921608	-9.43005
136.5	3.812975	-19.28002
137	3.639977	-25.27702
137.5	3.789812	-34.03357
138	3.87985	-41.64237
138.5	4.211506	-49.53218
139	4.532018	-60.83865
139.5	4.767903	-71.28912
140	5.179451	-83.57719
140.5	5.550855	-97.84618
141	5.727299	-112.0462
141.5	6.123655	-125.1141
142	6.509108	-140.6882
142.5	6.717458	-155.9377
143	7.169776	-170.1091
143.5	7.395739	174.1321
144	7.653976	160.473
144.5	7.974477	145.1301
145	8.06121	129.3261
145.5	8.292238	114.2729
146	8.550061	98.34344
146.5	8.67417	81.77714
147	8.696096	66.41216
147.5	8.822199	51.262
148	8.909188	35.89515
148.5	9.00537	21.37056
149	9.172251	6.03616
149.5	9.13974	-9.120283
150	9.246122	-24.1749
150.5	9.318152	-39.99658
151	9.316905	-54.57877
151.5	9.531195	-69.47284
152	9.618711	-84.49763
152.5	9.636422	-99.82673
153	9.684819	-114.6664
153.5	9.697641	-129.7989
154	9.710849	-145.0232
154.5	9.800633	-159.5193
155	9.929778	-175.4178
155.5	9.961481	169.4546
156	10.08912	154.5655
156.5	10.10077	139.489
157	10.19394	125.3863
157.5	10.28834	109.7853
158	10.23022	94.75095
158.5	10.34002	79.40225
159	10.40967	63.53966
159.5	10.37619	48.02816
160	10.36828	33.15775
160.5	10.49307	18.14968
161	10.4358	2.736734
161.5	10.43802	-11.61167
162	10.4671	-26.56602
162.5	10.41528	-41.5876
163	10.50988	-56.61992
163.5	10.49275	-72.1807
164	10.56561	-87.20631
164.5	10.65147	-102.4874
165	10.5951	-117.4855
165.5	10.63504	-131.963
166	10.72118	-146.9408
166.5	10.70772	-162.6904
167	10.64098	-177.1241
167.5	10.80314	167.5446
168	10.83571	152.1767
168.5	10.93803	136.9639
169	11.01892	121.1726
169.5	11.00346	106.2853
170	11.04871	90.96097
170.5	11.00928	75.65498
171	10.96379	60.37509
171.5	11.06221	44.77698
172	11.11897	28.86256
172.5	11.06077	13.24553
173	11.21786	-1.786851
173.5	11.20162	-18.04553
174	11.10625	-33.04976
174.5	11.19328	-48.81512
175	10.98959	-64.88705
175.5	10.92741	-80.2205
176	10.84651	-96.58891
176.5	10.74556	-112.6891
177	10.71101	-128.3331
177.5	10.6507	-144.3269
178	10.48767	-159.9635
178.5	10.29601	-175.3312
179	10.19368	168.4868
179.5	9.783354	152.5568
180	9.635761	137.7955
180.5	9.486042	121.4756
181	9.126947	106.4159
181.5	9.112119	90.79349
182	8.775737	75.1599
182.5	8.513574	60.73811
183	8.349439	46.05474
183.5	8.045882	30.47118
184	7.755801	15.5589
184.5	7.556552	0.8356135
185	7.289904	-14.56367
185.5	7.040525	-27.42514
186	6.98956	-41.56184
186.5	6.668818	-55.89408
187	6.536462	-67.93507
187.5	6.388492	-82.53329
188	6.139211	-94.96146
188.5	6.081793	-108.6483
189	5.986817	-123.045
189.5	5.898689	-136.9546
190	5.867179	-150.4604
190.5	5.878711	-163.7851
191	5.756934	-176.1286
191.5	5.879402	171.2987
192	5.817376	156.9287
192.5	5.71295	144.2826
193	5.856997	130.6505
193.5	5.773403	116.6196
194	5.926825	102.817
194.5	5.99247	87.95073
195	5.982326	73.82825
195.5	6.036406	60.27737
196	6.025947	46.74602
196.5	6.028072	32.91992
197	6.093895	19.41756
197.5	6.217061	3.7593
198	6.237015	-10.71183
198.5	6.372418	-24.94501
199	6.472812	-40.48744
199.5	6.470085	-53.76065
200	6.640253	-68.41924
200.5	6.626946	-83.56637
201	6.538626	-97.99412
201.5	6.558845	-112.9334
202	6.545958	-127.9518
202.5	6.537453	-142.809
203	6.713611	-157.2975
203.5	6.81344	-172.7054
204	6.856552	172.6468
204.5	6.883687	157.3708
205	6.695165	142.814
205.5	6.764008	129.2216
206	6.810965	113.158
206.5	6.72889	97.8661
207	6.761993	83.22906
207.5	6.800851	67.6881
208	6.803752	52.67967
208.5	6.750014	38.97987
209	6.901332	24.53319
209.5	6.842602	9.340455
210	6.793545	-5.717623
210.5	6.771383	-21.47639
211	6.685992	-36.07674
211.5	6.836303	-51.86913
212	6.754655	-67.19036
212.5	6.712265	-81.6039
213	6.73905	-96.52182
213.5	6.626511	-111.4145
214	6.533667	-125.9099
214.5	6.50953	-140.4074
215	6.461968	-156.2765
215.5	6.450772	-170.9178
216	6.496783	173.6138
216.5	6.46079	158.848
217	6.469099	144.5987
217.5	6.357725	129.2939
218	6.222234	115.2458
218.5	6.137764	100.1844
219	6.054575	84.94653
219.5	6.001691	70.44666
220	6.019044	55.17184
220.5	6.041668	40.03749
221	6.004698	25.82414
221.5	6.066803	11.14923
222	5.908651	-3.222151
222.5	5.834466	-16.55469
223	5.817415	-32.15826
223.5	5.625634	-46.96121
224	5.651814	-61.90004
224.5	5.572433	-76.8547
225	5.547499	-90.82858
225.5	5.634522	-105.5142
226	5.525278	-120.6658
226.5	5.442668	-134.4628
227	5.421835	-148.3313
227.5	5.345142	-163.864
228	5.289116	-177.7352
228.5	5.356665	166.7864
229	5.269443	150.8903
229.5	5.241902	138.4231
230	5.273716	123.6261
230.5	5.126819	109.8666
231	5.101036	96.38618
231.5	5.025585	80.51798
232	4.831031	66.26745
232.5	4.782492	52.31218
233	4.865465	37.6959
233.5	4.881676	23.16598
234	4.988252	9.084846
234.5	4.991049	-5.974233
235	4.838513	-18.70404
235.5	4.880544	-31.68483
236	4.765115	-46.78735
236.5	4.71393	-60.80635
237	4.744476	-75.78632
237.5	4.659792	-90.86922
238	4.720502	-103.9494
238.5	4.763906	-118.058
239	4.795403	-131.9717
239.5	4.829398	-145.0688
240	4.847885	-160.1519
240.5	4.735108	-174.9402
241	4.717287	171.6589
241.5	4.81991	155.9681
242	4.852904	141.671
242.5	4.963752	127.2608
243	4.99147	112.5529
243.5	4.958156	99.78169
244	5.057445	85.38741
244.5	4.973402	70.62011
245	4.961153	56.16827
245.5	5.027606	40.70801
246	5.003343	24.89983
246.5	5.021201	10.55723
247	5.186877	-3.564232
247.5	5.197063	-18.56338
248	5.24387	-32.19342
248.5	5.241706	-46.84226
249	5.137359	-61.75834
249.5	5.192133	-75.94614
250	5.223853	-92.68732
250.5	5.235645	-107.9302
251	5.30947	-122.6931
251.5	5.327381	-137.9085
252	5.340839	-152.1618
252.5	5.325078	-165.5969
253	5.355251	179.4194
253.5	5.214758	165.171
254	5.292625	149.8297
254.5	5.237179	133.2064
255	5.223875	118.6758
255.5	5.410209	103.3576
256	5.379004	88.26612
256.5	5.409993	74.27999
257	5.383357	59.74327
257.5	5.302351	44.97789
258	5.29296	30.25957
258.5	5.287157	15.26637
259	5.281926	-0.9940028
259.5	5.342586	-15.08167
260	5.447494	-31.18083
260.5	5.352491	-45.76225
261	5.408219	-59.25156
261.5	5.310066	-74.98372
262	5.17805	-88.75053
262.5	5.21834	-104.6056
263	5.18029	-120.8367
263.5	5.201762	-135.2636
264	5.323888	-150.5134
264.5	5.395566	-165.3446
265	5.388253	179.9014
265.5	5.401541	165.7092
266	5.290661	151.2155
266.5	5.263585	136.4415
267	5.245125	119.8092
267.5	5.038959	103.5459
268	5.167739	89.1008
268.5	5.213794	72.99461
269	5.165206	58.65614
269.5	5.268193	44.83784
270	5.192737	29.33579
270.5	5.142812	14.93005
271	5.089402	-0.5886375
271.5	5.0061	-16.27483
272	5.032662	-30.89543
272.5	5.111263	-47.15962
273	5.076948	-63.56102
273.5	5.014495	-76.88316
274	5.068569	-91.81432
274.5	4.874246	-106.7683
275	4.818094	-120.968
275.5	4.816201	-137.9729
276	4.654059	-153.8103
276.5	4.709733	-168.9465
277	4.756021	175.6528
277.5	4.70086	161.0231
278	4.74855	146.9543
278.5	4.697608	131.7125
279	4.498438	117.2544
279.5	4.460215	103.1838
280	4.328393	85.31975
280.5	4.213572	70.67546
281	4.310017	55.35117
281.5	4.286857	39.45445
282	4.317664	26.55805
282.5	4.330336	11.41666
283	4.217716	-3.473679
283.5	4.068558	-17.88861
284	4.031948	-33.30718
284.5	3.903131	-49.4269
285	3.834126	-64.29591
285.5	3.940458	-80.80045
286	3.79135	-96.05041
286.5	3.808625	-108.3272
287	3.797178	-122.52
287.5	3.683895	-135.9302
288	3.710515	-151.2479
288.5	3.570333	-168.2093
289	3.48501	175.6775
289.5	3.471028	160.9858
290	3.481624	145.5814
290.5	3.438852	131.1956
291	3.481835	118.1249
291.5	3.42294	101.4158
292	3.205159	88.77553
292.5	3.15802	73.5209
293	3.008624	57.15739
293.5	2.97997	42.46107
294	3.029072	25.445
294.5	2.996975	11.72458
295	2.995351	-1.373939
295.5	3.020413	-14.56534
296	2.878576	-29.19423
296.5	2.751782	-42.26191
297	2.754196	-57.38554
297.5	2.544176	-75.44379
298	2.561822	-89.6052
298.5	2.543619	-107.1803
299	2.501926	-119.9899
299.5	2.604018	-132.8878
300	2.50156	-146.337
300.5	2.451553	-157.2943
301	2.409406	-171.9337
301.5	2.338172	170.6006
302	2.199505	155.0839
302.5	2.209963	140.9458
303	2.220631	124.1936
303.5	2.173316	112.9925
304	2.266918	98.2436
304.5	2.117934	85.55373
305	2.113877	73.63877
305.5	2.017905	57.27861
306	1.86914	44.17887
306.5	1.929421	27.54121
307	1.984481	10.69732
307.5	1.966637	-3.372912
308	2.043244	-14.526
308.5	2.061411	-28.01999
309	1.950657	-40.66858
309.5	1.960984	-53.08661
310	1.781251	-70.88738
310.5	1.696291	-82.96983
311	1.702275	-102.4117
311.5	1.621116	-118.1231
312	1.770936	-130.4404
312.5	1.821764	-146.8201
313	1.794545	-157.7477
313.5	1.747185	-168.9397
314	1.687685	176.1893
314.5	1.558929	162.3964
315	1.511621	148.3316
315.5	1.541302	128.9023
316	1.429604	115.1211
316.5	1.549851	102.9773
317	1.522718	87.2963
317.5	1.510835	80.08504
318	1.587623	64.00454
318.5	1.392551	49.87153
319	1.312012	36.12916
319.5	1.270195	17.12959
320	1.194728	2.142935
320.5	1.280921	-9.383288
321	1.402661	-22.25276
321.5	1.36404	-35.1817
322	1.394506	-42.3568
322.5	1.353501	-57.97354
323	1.189561	-68.18988
323.5	1.210742	-80.28366
324	1.077456	-101.7938
324.5	1.086248	-114.1843
325	1.152909	-131.2768
325.5	1.193544	-144.5528
326	1.28849	-151.924
326.5	1.328517	-163.5056
327	1.303074	-175.4904
327.5	1.22096	174.7032
328	1.258968	157.0504
328.5	1.140188	140.0668
329	1.162316	127.2653
329.5	1.222984	108.3431
330	1.231005	99.46523
330.5	1.404845	85.62781
331	1.390196	73.6376
331.5	1.363496	62.12571
332	1.347868	49.43981
332.5	1.286544	34.18922
333	1.225704	16.661
333.5	1.342601	2.688911
334	1.410014	-15.82568
334.5	1.462928	-28.23146
335	1.519866	-42.2337
335.5	1.424196	-54.39721
336	1.513174	-61.63155
336.5	1.459231	-79.6582
337	1.381178	-94.53391
337.5	1.364636	-110.364
338	1.437789	-128.1126
338.5	1.534984	-143.832
339	1.596952	-156.2222
339.5	1.750378	-170.2329
340	1.631085	176.2906
340.5	1.616962	162.9428
341	1.473334	146.4237
341.5	1.36925	134.6149
342	1.509799	116.6244
342.5	1.443457	97.87237
343	1.547545	84.23833
343.5	1.644207	70.99055
344	1.660381	58.49836
344.5	1.712523	47.32736
345	1.669378	34.48222
345.5	1.559475	16.53648
346	1.501755	3.121153
346.5	1.535572	-15.718
347	1.518751	-31.42011
347.5	1.633209	-43.36187
348	1.699268	-60.9308
348.5	1.662234	-71.59541
349	1.685002	-85.82996
349.5	1.599763	-101.1441
350	1.506988	-113.3439
